TimeStamp,Delta_TP9,Delta_AF7,Delta_AF8,Delta_TP10,Theta_TP9,Theta_AF7,Theta_AF8,Theta_TP10,Alpha_TP9,Alpha_AF7,Alpha_AF8,Alpha_TP10,Beta_TP9,Beta_AF7,Beta_AF8,Beta_TP10,Gamma_TP9,Gamma_AF7,Gamma_AF8,Gamma_TP10,RAW_TP9,RAW_AF7,RAW_AF8,RAW_TP10,AUX_RIGHT,Accelerometer_X,Accelerometer_Y,Accelerometer_Z,Gyro_X,Gyro_Y,Gyro_Z,PPG_Ambient,PPG_IR,PPG_Red,Heart_Rate,HeadBandOn,HSI_TP9,HSI_AF7,HSI_AF8,HSI_TP10,Battery,Elements
2025-11-11 12:08:15.400,,,,,,,,,,,,,,,,,,,,,,,,,,,,,,,,,,,,,,,,,,/muse/event/connected Muse-135C
2025-11-11 12:08:15.453,,,,,,,,,,,,,,,,,,,,,,,,,,,,,,,,,,,,,,,,,,/muse/elements/blink
2025-11-11 12:08:15.456,,,,,,,,,,,,,,,,,,,,,,,,,,,,,,,,,,,,,,,,,,/muse/elements/blink
2025-11-11 12:08:15.505,,,,,,,,,,,,,,,,,,,,,,,,,,,,,,,,,,,,,,,,,,/muse/elements/blink
2025-11-11 12:08:16.060,,,,,,,,,,,,,,,,,,,,,,,,,,,,,,,,,,,,,,,,,,/muse/elements/blink
2025-11-11 12:08:16.188,,,,,,,,,,,,,,,,,,,,,,,,,,,,,,,,,,,,,,,,,,/muse/elements/jaw_clench
2025-11-11 12:08:16.295,,,,,,,,,,,,,,,,,,,,,,,,,,,,,,,,,,,,,,,,,,/muse/elements/blink
2025-11-11 12:08:16.401,0.2661519348147007,0.5757707205337339,0.3023452416769831,-0.4733434663761326,0.3452693413779749,0.2443155818002178,0.190423672049631,0.245545897094099,0.3614751010012178,0.07110116361307856,0.3612321395580089,0.2615209199815814,0.4488597902673941,0.01204236592308239,0.6098062274979095,0.3246918915817164,0.2099949274122697,-0.2121440708972832,0.3322495619875795,0.2037470782002246,834.4688644688645,883.2234432234433,1622.197802197802,835.6776556776557,799.4139194139194,-0.375732,0.210632,1.148193,2.751465,31.582031,41.002808,477069.597070,129949084.249084,71953699.633700,104.362587,1,2,1,4,2,40.000000
2025-11-11 12:08:17.401,0.2661519348147007,0.5757707205337339,0.3023452416769831,-0.4733434663761326,0.3452693413779749,0.2443155818002178,0.190423672049631,0.245545897094099,0.3614751010012178,0.07110116361307856,0.3612321395580089,0.2615209199815814,0.4488597902673941,0.01204236592308239,0.6098062274979095,0.3246918915817164,0.2099949274122697,-0.2121440708972832,0.3322495619875795,0.2037470782002246,819.5604395604396,804.2490842490843,1619.78021978022,791.7582417582418,644.2857142857143,-0.386475,0.024048,0.840210,-37.189636,-32.322235,83.314056,320732.600733,129940219.780220,70775531.135531,96.263542,1,2,1,1,2,40.000000
2025-11-11 12:08:17.786,,,,,,,,,,,,,,,,,,,,,,,,,,,,,,,,,,,,,,,,,,/muse/elements/blink
2025-11-11 12:08:18.128,,,,,,,,,,,,,,,,,,,,,,,,,,,,,,,,,,,,,,,,,,/muse/elements/blink
2025-11-11 12:08:18.401,0.2661519348147007,0.5757707205337339,0.3023452416769831,-0.4733434663761326,0.3452693413779749,0.2443155818002178,0.190423672049631,0.245545897094099,0.3614751010012178,0.07110116361307856,0.3612321395580089,0.2615209199815814,0.4488597902673941,0.01204236592308239,0.6098062274979095,0.3246918915817164,0.2099949274122697,-0.2121440708972832,0.3322495619875795,0.2037470782002246,813.919413919414,803.040293040293,64.87179487179488,750.6593406593407,382.3809523809524,-0.197754,0.220642,1.244934,-8.605804,-1.338348,82.162628,313479.853480,130058681.318681,70806153.846154,96.263542,1,2,1,4,2,40.000000
2025-11-11 12:08:19.400,0.2661519348147007,0.9753241347042033,0.3023452416769831,-0.4733434663761326,0.3452693413779749,1.160147521138623,0.190423672049631,0.245545897094099,0.3614751010012178,0.8286211518834941,0.3612321395580089,0.2615209199815814,0.4488597902673941,0.2716885022569869,0.6098062274979095,0.3246918915817164,0.2099949274122697,-0.08584783068765882,0.3322495619875795,0.2037470782002246,812.3076923076924,811.9047619047619,833.2600732600733,807.0695970695971,673.2967032967033,-0.153076,0.189270,0.887695,-10.160980,-8.613281,5.360870,312673.992674,130076410.256410,70746520.146520,96.263542,1,2,1,4,2,40.000000
2025-11-11 12:08:19.430,,,,,,,,,,,,,,,,,,,,,,,,,,,,,,,,,,,,,,,,,,/muse/elements/blink
2025-11-11 12:08:19.729,,,,,,,,,,,,,,,,,,,,,,,,,,,,,,,,,,,,,,,,,,/muse/elements/blink
2025-11-11 12:08:20.243,,,,,,,,,,,,,,,,,,,,,,,,,,,,,,,,,,,,,,,,,,/muse/elements/blink
2025-11-11 12:08:20.401,0.2661519348147007,0.925213843972846,0.3023452416769831,-0.4733434663761326,0.3452693413779749,1.073830610886989,0.190423672049631,0.245545897094099,0.3614751010012178,0.5862674485331426,0.3612321395580089,0.2615209199815814,0.4488597902673941,0.1060585116342874,0.6098062274979095,0.3246918915817164,0.2099949274122697,-0.1408334650631836,0.3322495619875795,0.2037470782002246,851.7948717948718,811.9047619047619,464.5787545787546,836.8864468864469,751.0622710622711,-0.330994,0.067566,0.944031,7.618866,9.891815,5.802002,310256.410256,131298095.238095,72577435.897436,96.263542,1,2,1,2,2,40.000000
2025-11-11 12:08:20.840,,,,,,,,,,,,,,,,,,,,,,,,,,,,,,,,,,,,,,,,,,/muse/elements/blink
2025-11-11 12:08:21.351,,,,,,,,,,,,,,,,,,,,,,,,,,,,,,,,,,,,,,,,,,/muse/elements/blink
2025-11-11 12:08:21.406,0.2661519348147007,0.925213843972846,0.3023452416769831,-0.4733434663761326,0.3452693413779749,1.073830610886989,0.190423672049631,0.245545897094099,0.3614751010012178,0.5862674485331426,0.3612321395580089,0.2615209199815814,0.4488597902673941,0.1060585116342874,0.6098062274979095,0.3246918915817164,0.2099949274122697,-0.1408334650631836,0.3322495619875795,0.2037470782002246,814.3223443223443,791.3553113553114,456.923076923077,812.7106227106227,811.0989010989011,-0.411743,-0.015747,0.888123,0.104675,9.136658,-19.821014,320732.600733,132501245.421245,80212967.032967,102.302109,1,2,1,4,2,40.000000
2025-11-11 12:08:22.161,,,,,,,,,,,,,,,,,,,,,,,,,,,,,,,,,,,,,,,,,,/muse/elements/blink
2025-11-11 12:08:22.400,0.2661519348147007,0.925213843972846,0.3023452416769831,-0.4733434663761326,0.3452693413779749,1.073830610886989,0.190423672049631,0.245545897094099,0.3614751010012178,0.5862674485331426,0.3612321395580089,0.2615209199815814,0.4488597902673941,0.1060585116342874,0.6098062274979095,0.3246918915817164,0.2099949274122697,-0.1408334650631836,0.3322495619875795,0.2037470782002246,785.3113553113553,822.7838827838829,221.6117216117216,759.92673992674,699.8901098901099,-0.300964,0.270081,0.887207,21.376190,-27.731476,-62.035065,354578.754579,132693846.153846,81573260.073260,109.555847,1,2,1,4,2,40.000000
2025-11-11 12:08:23.086,,,,,,,,,,,,,,,,,,,,,,,,,,,,,,,,,,,,,,,,,,/muse/elements/blink
2025-11-11 12:08:23.400,0.2661519348147007,0.925213843972846,0.3023452416769831,-0.4733434663761326,0.3452693413779749,1.073830610886989,0.190423672049631,0.245545897094099,0.3614751010012178,0.5862674485331426,0.3612321395580089,0.2615209199815814,0.4488597902673941,0.1060585116342874,0.6098062274979095,0.3246918915817164,0.2099949274122697,-0.1408334650631836,0.3322495619875795,0.2037470782002246,778.4615384615385,790.5494505494506,672.4908424908425,786.1172161172161,627.7655677655678,-0.350891,0.112366,0.900818,16.321869,-5.727234,-40.703735,319926.739927,132627765.567766,79906739.926740,109.555847,1,2,1,4,2,40.000000
2025-11-11 12:08:24.121,,,,,,,,,,,,,,,,,,,,,,,,,,,,,,,,,,,,,,,,,,/muse/elements/blink
2025-11-11 12:08:24.408,0.2661519348147007,0.925213843972846,0.3023452416769831,-0.4733434663761326,0.3452693413779749,1.073830610886989,0.190423672049631,0.245545897094099,0.3614751010012178,0.5862674485331426,0.3612321395580089,0.2615209199815814,0.4488597902673941,0.1060585116342874,0.6098062274979095,0.3246918915817164,0.2099949274122697,-0.1408334650631836,0.3322495619875795,0.2037470782002246,757.1062271062272,791.3553113553114,452.0879120879121,760.3296703296703,662.8205128205128,-0.308838,0.101685,0.927368,15.731201,-16.314392,-25.682831,308644.688645,131862197.802198,75391501.831502,104.271332,1,2,1,4,2,40.000000
2025-11-11 12:08:24.595,,,,,,,,,,,,,,,,,,,,,,,,,,,,,,,,,,,,,,,,,,/muse/elements/blink
2025-11-11 12:08:25.499,0.2661519348147007,0.925213843972846,0.3023452416769831,-0.4733434663761326,0.3452693413779749,1.073830610886989,0.190423672049631,0.245545897094099,0.3614751010012178,0.5862674485331426,0.3612321395580089,0.2615209199815814,0.4488597902673941,0.1060585116342874,0.6098062274979095,0.3246918915817164,0.2099949274122697,-0.1408334650631836,0.3322495619875795,0.2037470782002246,808.2783882783883,769.5970695970697,248.2051282051282,829.6336996336996,782.4908424908425,-0.302368,0.195251,0.953003,26.841736,-8.777771,-48.502045,306227.106227,132253040.293040,75298827.838828,104.271332,1,2,1,4,2,40.000000
2025-11-11 12:08:25.871,,,,,,,,,,,,,,,,,,,,,,,,,,,,,,,,,,,,,,,,,,/muse/elements/blink
2025-11-11 12:08:26.474,0.2661519348147007,0.5932240590798652,0.3023452416769831,-0.4733434663761326,0.3452693413779749,-0.004146399458537511,0.190423672049631,0.245545897094099,0.3614751010012178,0.05804027830169795,0.3612321395580089,0.2615209199815814,0.4488597902673941,0.1093596625950133,0.6098062274979095,0.3246918915817164,0.2099949274122697,-0.2042215459401114,0.3322495619875795,0.2037470782002246,792.5641025641025,790.952380952381,101.1355311355311,810.2930402930403,729.7069597069598,0.087646,0.054260,0.951050,-1.869202,-29.039917,-45.944977,315897.435897,132207106.227106,84450989.010989,104.271332,1,2,1,2,2,40.000000
2025-11-11 12:08:27.443,0.2661519348147007,0.4312660663311171,0.3023452416769831,-0.4733434663761326,0.3452693413779749,-0.02493754693071489,0.190423672049631,0.245545897094099,0.3614751010012178,-0.1741199133087103,0.3612321395580089,0.2615209199815814,0.4488597902673941,-0.09819232700197721,0.6098062274979095,0.3246918915817164,0.2099949274122697,-0.2304781263427232,0.3322495619875795,0.2037470782002246,821.1721611721612,774.4322344322345,830.4395604395604,802.2344322344322,683.3699633699634,0.189148,0.129150,1.114197,4.934692,5.353394,13.503113,329597.069597,134030769.230769,93984322.344322,96.522881,1,2,1,2,2,40.000000
2025-11-11 12:08:27.572,,,,,,,,,,,,,,,,,,,,,,,,,,,,,,,,,,,,,,,,,,/muse/elements/blink
2025-11-11 12:08:28.309,,,,,,,,,,,,,,,,,,,,,,,,,,,,,,,,,,,,,,,,,,/muse/elements/blink
2025-11-11 12:08:28.439,0.2661519348147007,0.6049799005292646,0.3023452416769831,-0.4733434663761326,0.3452693413779749,-0.06813482638610986,0.190423672049631,0.245545897094099,0.3614751010012178,0.2618224406980328,0.3612321395580089,0.2615209199815814,0.4488597902673941,-0.1282228612126363,0.6098062274979095,0.3246918915817164,0.2099949274122697,-0.3147333391257272,0.3322495619875795,0.2037470782002246,842.5274725274726,790.1465201465202,804.6520146520147,850.1831501831502,954.9450549450549,0.111511,0.194885,0.912170,-0.044861,14.176025,-2.041168,334432.234432,134694798.534799,89104835.164835,93.259018,1,2,1,2,2,40.000000
2025-11-11 12:08:28.810,,,,,,,,,,,,,,,,,,,,,,,,,,,,,,,,,,,,,,,,,,/muse/elements/blink
2025-11-11 12:08:29.448,0.2661519348147007,0.8046671892396653,0.3023452416769831,-0.4733434663761326,0.3452693413779749,0.3605129330516734,0.190423672049631,0.245545897094099,0.3614751010012178,0.5785350895018413,0.3612321395580089,0.2615209199815814,0.4488597902673941,-0.03788077677663881,0.6098062274979095,0.3246918915817164,0.2099949274122697,-0.2804928959519006,0.3322495619875795,0.2037470782002246,822.3809523809524,776.8498168498169,549.5970695970697,805.8608058608058,668.8644688644689,0.209106,0.125854,0.977356,2.362671,4.710388,42.752380,326373.626374,134725421.245421,88620512.820513,93.892822,1,2,1,2,2,40.000000
2025-11-11 12:08:30.407,0.2661519348147007,0.8006216509619228,0.3023452416769831,1.575869252980751,0.3452693413779749,0.5743489945706942,0.190423672049631,1.377601853160699,0.3614751010012178,0.3594512291998569,0.3612321395580089,1.190204553105423,0.4488597902673941,0.009217258043305686,0.6098062274979095,0.9464273615897807,0.2099949274122697,-0.02839206792013624,0.3322495619875795,0.8452823870170221,780.4761904761905,788.9377289377289,523.0036630036631,763.5531135531136,676.5201465201466,0.214478,-0.017212,0.989502,0.426178,-2.497253,65.414581,313479.853480,135073553.113553,85716996.336996,95.378960,1,1,1,4,1,40.000000
2025-11-11 12:08:30.645,,,,,,,,,,,,,,,,,,,,,,,,,,,,,,,,,,,,,,,,,,/muse/elements/blink
2025-11-11 12:08:31.495,0.2661519348147007,0.9037466540233361,0.3023452416769831,1.486739094524663,0.3452693413779749,0.6618854044626736,0.190423672049631,1.249660518531845,0.3614751010012178,0.4740147218855012,0.3612321395580089,1.147609758238687,0.4488597902673941,0.1022240877975239,0.6098062274979095,0.8953769188728382,0.2099949274122697,0.05236839946490016,0.3322495619875795,0.7157322075863048,827.6190476190476,793.7728937728938,492.7838827838828,828.8278388278388,905.3846153846154,0.161804,0.178528,0.883545,9.592743,7.357178,62.648163,314285.714286,135462783.882784,85836263.736264,110.303947,1,1,1,2,1,40.000000
2025-11-11 12:08:32.495,0.2661519348147007,0.9726934924003496,0.3023452416769831,1.486739094524663,0.3452693413779749,0.6927816996951902,0.190423672049631,1.249660518531845,0.3614751010012178,1.049064999773263,0.3612321395580089,1.147609758238687,0.4488597902673941,0.2356671065970877,0.6098062274979095,0.8953769188728382,0.2099949274122697,0.03916147105723632,0.3322495619875795,0.7157322075863048,809.8901098901099,782.0879120879121,346.5201465201465,819.5604395604396,578.2051282051282,0.205750,0.066895,1.121216,18.632202,6.931000,25.234222,320732.600733,135532087.912088,90059780.219780,125.984436,1,1,1,4,1,40.000000
2025-11-11 12:08:32.749,,,,,,,,,,,,,,,,,,,,,,,,,,,,,,,,,,,,,,,,,,/muse/elements/blink
2025-11-11 12:08:33.471,0.2661519348147007,1.25706615209174,0.3023452416769831,1.486739094524663,0.3452693413779749,1.128405562621917,0.190423672049631,1.249660518531845,0.3614751010012178,1.065942437624787,0.3612321395580089,1.147609758238687,0.4488597902673941,0.3622286357497069,0.6098062274979095,0.8953769188728382,0.2099949274122697,0.09249246056832623,0.3322495619875795,0.7157322075863048,806.2637362637363,814.3223443223443,467.3992673992674,794.5787545787546,532.2710622710623,0.200806,-0.014160,0.934814,-6.377716,-27.776337,30.789490,323956.043956,144938095.238095,94236556.776557,123.231735,1,2,1,2,2,40.000000
2025-11-11 12:08:34.325,,,,,,,,,,,,,,,,,,,,,,,,,,,,,,,,,,,,,,,,,,/muse/elements/blink
2025-11-11 12:08:34.462,0.2661519348147007,1.305564569033014,0.3023452416769831,1.486739094524663,0.3452693413779749,1.184188390358455,0.190423672049631,1.249660518531845,0.3614751010012178,1.065942437624787,0.3612321395580089,1.147609758238687,0.4488597902673941,0.3954896723077579,0.6098062274979095,0.8953769188728382,0.2099949274122697,0.0964702418511497,0.3322495619875795,0.7157322075863048,816.3369963369963,798.2051282051282,577.8021978021978,827.2161172161173,775.6410256410256,0.304993,0.136536,0.935303,-4.755249,-0.246735,-0.508423,328791.208791,155771282.051282,111494065.934066,105.911270,1,2,1,2,2,40.000000
2025-11-11 12:08:35.200,,,,,,,,,,,,,,,,,,,,,,,,,,,,,,,,,,,,,,,,,,/muse/elements/blink
2025-11-11 12:08:35.455,0.2661519348147007,1.305564569033014,0.3023452416769831,1.486739094524663,0.3452693413779749,1.184188390358455,0.190423672049631,1.249660518531845,0.3614751010012178,1.065942437624787,0.3612321395580089,1.147609758238687,0.4488597902673941,0.3954896723077579,0.6098062274979095,0.8953769188728382,0.2099949274122697,0.0964702418511497,0.3322495619875795,0.7157322075863048,802.2344322344322,784.9084249084249,416.2271062271062,808.2783882783883,528.6446886446887,0.393372,0.215088,0.748474,-22.624817,5.951538,-48.307648,328791.208791,182669304.029304,127127765.567766,105.911270,1,2,1,2,2,40.000000
2025-11-11 12:08:35.573,,,,,,,,,,,,,,,,,,,,,,,,,,,,,,,,,,,,,,,,,,/muse/elements/blink
2025-11-11 12:08:36.495,0.2661519348147007,1.305564569033014,0.3023452416769831,1.486739094524663,0.3452693413779749,1.184188390358455,0.190423672049631,1.249660518531845,0.3614751010012178,1.065942437624787,0.3612321395580089,1.147609758238687,0.4488597902673941,0.3954896723077579,0.6098062274979095,0.8953769188728382,0.2099949274122697,0.0964702418511497,0.3322495619875795,0.7157322075863048,824.7985347985348,800.6227106227107,624.9450549450549,805.0549450549451,857.8388278388279,0.217896,0.137024,0.915955,-2.011261,-4.800110,-43.888855,333626.373626,181536263.736264,122095970.695971,105.911270,1,2,1,2,2,40.000000
2025-11-11 12:08:37.470,1.471997918685861,1.305564569033014,0.3023452416769831,1.772570075084178,1.513392951140232,1.184188390358455,0.190423672049631,1.596572910067545,1.326467701076322,1.065942437624787,0.3612321395580089,1.423604062035372,0.9260163977430561,0.3954896723077579,0.6098062274979095,0.9105880497281807,0.7357129858131628,0.0964702418511497,0.3322495619875795,0.724444891208481,790.5494505494506,797.3992673992674,782.0879120879121,766.7765567765568,687.3992673992674,0.213196,0.237915,0.994324,-3.162689,12.785339,-17.637787,327985.347985,169993919.413919,106943369.963370,102.260788,1,1,1,2,1,40.000000
2025-11-11 12:08:37.829,,,,,,,,,,,,,,,,,,,,,,,,,,,,,,,,,,,,,,,,,,/muse/elements/blink
2025-11-11 12:08:38.329,,,,,,,,,,,,,,,,,,,,,,,,,,,,,,,,,,,,,,,,,,/muse/elements/jaw_clench
2025-11-11 12:08:38.463,1.357306791417936,1.305564569033014,0.3023452416769831,1.661167196249917,1.595284554327968,1.184188390358455,0.190423672049631,1.379506690821849,1.332242634663729,1.065942437624787,0.3612321395580089,1.012042454501947,0.9455151184267938,0.3954896723077579,0.6098062274979095,0.9784943675613874,0.750985359933918,0.0964702418511497,0.3322495619875795,0.8388088510129659,1621.794871794872,778.4615384615385,202.6739926739927,807.0695970695971,681.3553113553114,-0.267334,0.270203,0.750610,16.912537,8.508606,-51.081543,309450.549451,143782490.842491,83799853.479853,102.185181,1,1,1,2,1,40.000000
2025-11-11 12:08:39.456,1.357306791417936,1.305564569033014,0.3023452416769831,1.620146409767926,1.595284554327968,1.184188390358455,0.190423672049631,1.389039954335562,1.332242634663729,1.065942437624787,0.3612321395580089,0.9525371496808478,0.9455151184267938,0.3954896723077579,0.6098062274979095,0.9755224164250833,0.750985359933918,0.0964702418511497,0.3322495619875795,0.8821221551309693,662.014652014652,806.6666666666667,510.1098901098901,806.6666666666667,753.4798534798535,-0.443176,0.123291,0.854858,27.155762,-21.278992,-34.841919,307838.827839,141688058.608059,81636923.076923,105.926666,1,4,1,4,1,40.000000
2025-11-11 12:08:40.450,1.357306791417936,1.060061764878854,0.3023452416769831,1.620146409767926,1.595284554327968,0.7173612386224809,0.190423672049631,1.389039954335562,1.332242634663729,0.4320554689743834,0.3612321395580089,0.9525371496808478,0.9455151184267938,0.1410671537154289,0.6098062274979095,0.9755224164250833,0.750985359933918,0.07642779929995976,0.3322495619875795,0.8821221551309693,557.2527472527472,1621.794871794872,1087.106227106227,552.4175824175825,657.1794871794872,-0.217834,0.160095,1.189453,1.592560,1.614990,-19.417267,367472.527473,245640879.120879,153000732.600733,107.129028,1,2,1,4,2,40.000000
2025-11-11 12:08:40.692,,,,,,,,,,,,,,,,,,,,,,,,,,,,,,,,,,,,,,,,,,/muse/elements/blink
2025-11-11 12:08:40.934,,,,,,,,,,,,,,,,,,,,,,,,,,,,,,,,,,,,,,,,,,/muse/elements/jaw_clench
2025-11-11 12:08:41.061,,,,,,,,,,,,,,,,,,,,,,,,,,,,,,,,,,,,,,,,,,/muse/elements/blink
2025-11-11 12:08:41.450,1.357306791417936,0.9833028601743308,0.3023452416769831,1.620146409767926,1.595284554327968,0.6137098792482896,0.190423672049631,1.389039954335562,1.332242634663729,0.3842328996683105,0.3612321395580089,0.9525371496808478,0.9455151184267938,0.06483209974691684,0.6098062274979095,0.9755224164250833,0.750985359933918,0.09987800210001481,0.3322495619875795,0.8821221551309693,916.2637362637363,914.6520146520147,653.5531135531136,845.7509157509157,670.8791208791209,-0.183533,0.305847,0.997925,11.536713,-6.594543,-3.648682,347326.007326,182859487.179487,100283736.263736,107.312798,1,2,4,4,2,40.000000
2025-11-11 12:08:42.422,1.357306791417936,0.9833028601743308,0.3023452416769831,1.620146409767926,1.595284554327968,0.6137098792482896,0.190423672049631,1.389039954335562,1.332242634663729,0.3842328996683105,0.3612321395580089,0.9525371496808478,0.9455151184267938,0.06483209974691684,0.6098062274979095,0.9755224164250833,0.750985359933918,0.09987800210001481,0.3322495619875795,0.8821221551309693,790.1465201465202,779.2673992673992,441.6117216117216,767.5824175824176,796.996336996337,-0.248596,0.027222,0.865906,7.768402,6.534729,9.263763,385201.465201,174166666.666667,96367252.747253,109.479202,1,2,1,4,2,40.000000
2025-11-11 12:08:43.321,,,,,,,,,,,,,,,,,,,,,,,,,,,,,,,,,,,,,,,,,,/muse/elements/blink
2025-11-11 12:08:43.451,1.357306791417936,0.9833028601743308,0.3023452416769831,1.620146409767926,1.595284554327968,0.6137098792482896,0.190423672049631,1.389039954335562,1.332242634663729,0.3842328996683105,0.3612321395580089,0.9525371496808478,0.9455151184267938,0.06483209974691684,0.6098062274979095,0.9755224164250833,0.750985359933918,0.09987800210001481,0.3322495619875795,0.8821221551309693,871.941391941392,743.4065934065934,1155.201465201465,839.7069597069598,717.2161172161173,-0.296387,0.262939,0.936096,-14.519958,12.740479,49.855347,539120.879121,175299706.959707,104036630.036630,109.479202,1,2,1,2,2,40.000000
2025-11-11 12:08:44.436,1.357306791417936,0.9833028601743308,0.3023452416769831,1.620146409767926,1.595284554327968,0.6137098792482896,0.190423672049631,1.389039954335562,1.332242634663729,0.3842328996683105,0.3612321395580089,0.9525371496808478,0.9455151184267938,0.06483209974691684,0.6098062274979095,0.9755224164250833,0.750985359933918,0.09987800210001481,0.3322495619875795,0.8821221551309693,822.3809523809524,790.1465201465202,967.4358974358975,780.4761904761905,697.8754578754579,-0.412354,0.261292,0.923523,-9.742279,12.336731,23.252869,362637.362637,173841904.761905,95526739.926740,107.729881,1,2,1,4,2,40.000000
2025-11-11 12:08:45.444,1.357306791417936,0.7248125206450166,0.3023452416769831,0.8814793866383256,1.595284554327968,0.5367109421659371,0.190423672049631,0.9179221735629486,1.332242634663729,0.5687696550185005,0.3612321395580089,0.9593077771718745,0.9455151184267938,0.03351894587219971,0.6098062274979095,0.9181510235299001,0.750985359933918,-0.3505488305638868,0.3322495619875795,0.8540145004517093,854.6153846153846,735.7509157509157,537.5091575091575,870.7326007326008,778.8644688644689,-0.420410,0.075073,0.899841,-24.770660,-5.966492,52.158203,315897.435897,170144615.384615,93366227.106227,90.375862,1,1,1,4,1,40.000000
2025-11-11 12:08:45.568,,,,,,,,,,,,,,,,,,,,,,,,,,,,,,,,,,,,,,,,,,/muse/elements/blink
2025-11-11 12:08:46.458,1.357306791417936,0.7550349774304603,0.3023452416769831,0.8814793866383256,1.595284554327968,0.4616399807767804,0.190423672049631,0.9179221735629486,1.332242634663729,0.5247755507998736,0.3612321395580089,0.9593077771718745,0.9455151184267938,0.1220046170112376,0.6098062274979095,0.9181510235299001,0.750985359933918,-0.3482147224824205,0.3322495619875795,0.8540145004517093,824.7985347985348,769.5970695970697,590.6959706959707,808.6813186813187,730.1098901098901,-0.363281,0.376709,0.907410,-8.830109,23.058472,46.057129,320732.600733,168295970.695971,95356703.296703,90.375862,1,1,1,2,1,40.000000
2025-11-11 12:08:47.457,1.664044087005475,0.8121325347853348,0.3023452416769831,0.8814793866383256,1.553406243452679,0.3803963673236721,0.190423672049631,0.9179221735629486,1.12886248913822,0.4510540035432511,0.3612321395580089,0.9593077771718745,1.002189324062849,0.07972104426619796,0.6098062274979095,0.9181510235299001,0.6762869305457996,-0.3843382273842325,0.3322495619875795,0.8540145004517093,837.6923076923077,784.5054945054945,261.0989010989011,809.4871794871796,564.9084249084249,-0.297729,0.245789,0.784912,-15.177917,-3.319702,28.995056,334432.234432,167950256.410256,110867106.227106,90.375862,1,1,1,4,1,40.000000
2025-11-11 12:08:47.940,,,,,,,,,,,,,,,,,,,,,,,,,,,,,,,,,,,,,,,,,,/muse/elements/blink
2025-11-11 12:08:48.173,,,,,,,,,,,,,,,,,,,,,,,,,,,,,,,,,,,,,,,,,,/muse/elements/blink
2025-11-11 12:08:48.410,1.664044087005475,0.8631002432082601,0.3023452416769831,1.060656520729896,1.553406243452679,0.524388255882265,0.190423672049631,0.8003895886226734,1.12886248913822,0.5798010174622816,0.3612321395580089,0.5713562321911015,1.002189324062849,0.1527353481321344,0.6098062274979095,0.8807803620483182,0.6762869305457996,-0.4224669273196219,0.3322495619875795,0.6688823754973029,806.2637362637363,771.2087912087912,466.996336996337,820.7692307692308,786.1172161172161,-0.265808,0.012024,0.903442,-9.211426,-27.783813,-1.061707,329597.069597,189076703.296703,116108424.908425,90.375862,1,1,1,4,1,40.000000
2025-11-11 12:08:49.495,1.664044087005475,1.046155295228083,0.3023452416769831,1.11047307220865,1.553406243452679,0.6485489607068107,0.190423672049631,0.7885583841039877,1.12886248913822,0.5793180946727753,0.3612321395580089,0.5629742733753899,1.002189324062849,0.1879585393032334,0.6098062274979095,0.8722009868201831,0.6762869305457996,-0.4597858699305671,0.3322495619875795,0.6479351609403163,790.1465201465202,782.0879120879121,700.6959706959707,819.5604395604396,715.2014652014652,-0.009277,0.163452,0.893494,-8.747864,-5.353394,-11.790924,336849.816850,195706520.146520,125109890.109890,90.375862,1,1,1,4,1,40.000000
2025-11-11 12:08:50.478,1.664044087005475,0.8198432380990686,0.3023452416769831,1.830722240344234,1.553406243452679,0.3936757810701426,0.190423672049631,1.682159980308093,1.12886248913822,0.3495071499181062,0.3612321395580089,1.167041588107852,1.002189324062849,-0.1153846507306093,0.6098062274979095,0.5960183259224675,0.6762869305457996,-0.3004239791748191,0.3322495619875795,0.8209944033409827,780.0732600732601,784.9084249084249,485.1282051282051,796.5934065934066,683.3699633699634,0.118286,0.188354,1.007141,-3.409424,-7.514191,-63.889313,337655.677656,200138754.578755,130213406.593407,90.509941,1,1,1,2,1,40.000000
2025-11-11 12:08:50.851,,,,,,,,,,,,,,,,,,,,,,,,,,,,,,,,,,,,,,,,,,/muse/elements/blink
2025-11-11 12:08:51.454,,,,,,,,,,,,,,,,,,,,,,,,,,,,,,,,,,,,,,,,,,/muse/elements/blink
2025-11-11 12:08:51.455,1.664044087005475,1.055389776821912,0.3023452416769831,1.830722240344234,1.553406243452679,0.6465325512399716,0.190423672049631,1.682159980308093,1.12886248913822,0.3521095159407084,0.3612321395580089,1.167041588107852,1.002189324062849,-0.08402974988410658,0.6098062274979095,0.5960183259224675,0.6762869305457996,-0.3036058448581175,0.3322495619875795,0.8209944033409827,814.3223443223443,793.7728937728938,583.8461538461538,815.1282051282052,670.0732600732601,-0.070129,0.080994,0.953186,7.551575,-11.723633,-35.641937,332014.652015,181371868.131868,109409304.029304,90.509941,1,1,1,2,1,40.000000
2025-11-11 12:08:51.953,,,,,,,,,,,,,,,,,,,,,,,,,,,,,,,,,,,,,,,,,,/muse/elements/blink
2025-11-11 12:08:52.452,1.664044087005475,0.9824151964851006,0.3023452416769831,1.830722240344234,1.553406243452679,0.6126553539128031,0.190423672049631,1.682159980308093,1.12886248913822,0.3240496298220218,0.3612321395580089,1.167041588107852,1.002189324062849,-0.05344300560944456,0.6098062274979095,0.5960183259224675,0.6762869305457996,-0.4021179335788216,0.3322495619875795,0.8209944033409827,805.0549450549451,832.4542124542124,1042.380952380953,840.1098901098901,757.9120879120879,-0.276489,0.196228,0.932861,6.317902,12.284393,-46.393585,311062.271062,169440293.040293,95359926.739927,90.509941,1,2,1,4,2,40.000000
2025-11-11 12:08:52.821,,,,,,,,,,,,,,,,,,,,,,,,,,,,,,,,,,,,,,,,,,/muse/elements/blink
2025-11-11 12:08:53.211,,,,,,,,,,,,,,,,,,,,,,,,,,,,,,,,,,,,,,,,,,/muse/elements/blink
2025-11-11 12:08:53.470,,,,,,,,,,,,,,,,,,,,,,,,,,,,,,,,,,,,,,,,,,/muse/elements/blink
2025-11-11 12:08:53.483,1.664044087005475,0.9824151964851006,0.3023452416769831,1.830722240344234,1.553406243452679,0.6126553539128031,0.190423672049631,1.682159980308093,1.12886248913822,0.3240496298220218,0.3612321395580089,1.167041588107852,1.002189324062849,-0.05344300560944456,0.6098062274979095,0.5960183259224675,0.6762869305457996,-0.4021179335788216,0.3322495619875795,0.8209944033409827,780.8791208791209,1026.666666666667,931.5750915750916,801.8315018315019,716.8131868131868,-0.444153,0.022888,0.914490,17.989197,4.545898,-45.047760,304615.384615,155654432.234432,87835604.395604,90.509941,1,2,1,4,2,40.000000
2025-11-11 12:08:53.851,,,,,,,,,,,,,,,,,,,,,,,,,,,,,,,,,,,,,,,,,,/muse/elements/blink
2025-11-11 12:08:53.859,,,,,,,,,,,,,,,,,,,,,,,,,,,,,,,,,,,,,,,,,,/muse/elements/jaw_clench
2025-11-11 12:08:54.496,1.664044087005475,0.9824151964851006,0.3023452416769831,1.830722240344234,1.553406243452679,0.6126553539128031,0.190423672049631,1.682159980308093,1.12886248913822,0.3240496298220218,0.3612321395580089,1.167041588107852,1.002189324062849,-0.05344300560944456,0.6098062274979095,0.5960183259224675,0.6762869305457996,-0.4021179335788216,0.3322495619875795,0.8209944033409827,782.4908424908425,776.0439560439561,502.8571428571429,815.5311355311355,854.2124542124542,0.044312,0.071655,1.038757,8.112335,-8.822632,-18.198547,332820.512821,160192234.432234,110054798.534799,90.509941,1,2,1,2,2,40.000000
2025-11-11 12:08:54.975,,,,,,,,,,,,,,,,,,,,,,,,,,,,,,,,,,,,,,,,,,/muse/elements/blink
2025-11-11 12:08:55.485,,,,,,,,,,,,,,,,,,,,,,,,,,,,,,,,,,,,,,,,,,/muse/elements/blink
2025-11-11 12:08:55.487,1.664044087005475,0.6614872439893439,0.3023452416769831,1.830722240344234,1.553406243452679,0.7945179913126739,0.190423672049631,1.682159980308093,1.12886248913822,0.263268028852836,0.3612321395580089,1.167041588107852,1.002189324062849,0.07568149986154996,0.6098062274979095,0.5960183259224675,0.6762869305457996,0.1479188374686799,0.3322495619875795,0.8209944033409827,776.8498168498169,784.9084249084249,872.7472527472528,798.2051282051282,933.5897435897436,-0.113586,0.276245,0.886902,-16.299438,3.521576,-13.712463,349743.589744,164107106.227106,111807545.787546,90.509941,1,2,1,2,2,40.000000
2025-11-11 12:08:56.498,,,,,,,,,,,,,,,,,,,,,,,,,,,,,,,,,,,,,,,,,,/muse/elements/blink
2025-11-11 12:08:56.507,1.664044087005475,0.8561898565630954,0.3023452416769831,1.830722240344234,1.553406243452679,0.868888484183435,0.190423672049631,1.682159980308093,1.12886248913822,0.6891025068349645,0.3612321395580089,1.167041588107852,1.002189324062849,0.04903037025447871,0.6098062274979095,0.5960183259224675,0.6762869305457996,0.05140883435202322,0.3322495619875795,0.8209944033409827,837.6923076923077,776.0439560439561,970.2564102564103,836.4835164835165,754.2857142857143,-0.231140,0.111877,0.926208,3.618774,16.561127,16.149902,398901.098901,161608937.728938,103176776.556777,91.563049,1,2,1,2,2,40.000000
2025-11-11 12:08:57.498,1.664044087005475,0.9971272751867691,0.3023452416769831,1.830722240344234,1.553406243452679,0.9243221649818236,0.190423672049631,1.682159980308093,1.12886248913822,0.6701235004514521,0.3612321395580089,1.167041588107852,1.002189324062849,0.05511104154197537,0.6098062274979095,0.5960183259224675,0.6762869305457996,-0.1454883575848158,0.3322495619875795,0.8209944033409827,802.2344322344322,785.7142857142858,79.78021978021978,788.5347985347986,855.0183150183151,-0.265930,0.138550,0.971436,-11.275024,13.361053,42.782288,495604.395604,161945787.545788,97754945.054945,93.863640,1,2,1,4,2,40.000000
2025-11-11 12:08:57.746,,,,,,,,,,,,,,,,,,,,,,,,,,,,,,,,,,,,,,,,,,/muse/elements/blink
2025-11-11 12:08:58.487,1.664044087005475,0.9971272751867691,0.3023452416769831,1.830722240344234,1.553406243452679,0.9243221649818236,0.190423672049631,1.682159980308093,1.12886248913822,0.6701235004514521,0.3612321395580089,1.167041588107852,1.002189324062849,0.05511104154197537,0.6098062274979095,0.5960183259224675,0.6762869305457996,-0.1454883575848158,0.3322495619875795,0.8209944033409827,798.2051282051282,776.4468864468864,674.5054945054945,782.893772893773,796.996336996337,-0.231445,0.168945,0.941833,-18.176117,-1.315918,35.290527,331208.791209,165056410.256410,116782124.542125,94.058136,1,2,1,4,2,40.000000
2025-11-11 12:08:59.087,,,,,,,,,,,,,,,,,,,,,,,,,,,,,,,,,,,,,,,,,,/muse/elements/blink
2025-11-11 12:08:59.326,,,,,,,,,,,,,,,,,,,,,,,,,,,,,,,,,,,,,,,,,,/muse/elements/jaw_clench
2025-11-11 12:08:59.334,,,,,,,,,,,,,,,,,,,,,,,,,,,,,,,,,,,,,,,,,,/muse/elements/blink
2025-11-11 12:08:59.454,,,,,,,,,,,,,,,,,,,,,,,,,,,,,,,,,,,,,,,,,,/muse/elements/jaw_clench
2025-11-11 12:08:59.455,1.664044087005475,1.025476127193336,0.3023452416769831,1.830722240344234,1.553406243452679,0.5028041326071275,0.190423672049631,1.682159980308093,1.12886248913822,0.1903950081289615,0.3612321395580089,1.167041588107852,1.002189324062849,0.2229878636547583,0.6098062274979095,0.5960183259224675,0.6762869305457996,-0.1673641023485298,0.3322495619875795,0.8209944033409827,850.989010989011,776.0439560439561,192.6007326007326,850.989010989011,716.4102564102565,-0.207947,0.050842,0.871643,-8.426361,-5.742188,57.526550,329597.069597,162955531.135531,113889890.109890,94.058136,1,2,1,2,2,40.000000
2025-11-11 12:08:59.690,,,,,,,,,,,,,,,,,,,,,,,,,,,,,,,,,,,,,,,,,,/muse/elements/blink
2025-11-11 12:09:00.422,,,,,,,,,,,,,,,,,,,,,,,,,,,,,,,,,,,,,,,,,,/muse/elements/blink
2025-11-11 12:09:00.429,1.664044087005475,1.025476127193336,0.3023452416769831,1.830722240344234,1.553406243452679,0.5028041326071275,0.190423672049631,1.682159980308093,1.12886248913822,0.1903950081289615,0.3612321395580089,1.167041588107852,1.002189324062849,0.2229878636547583,0.6098062274979095,0.5960183259224675,0.6762869305457996,-0.1673641023485298,0.3322495619875795,0.8209944033409827,819.5604395604396,792.5641025641025,969.4505494505495,817.948717948718,689.4139194139194,-0.360352,0.207336,1.006653,-7.902985,11.798401,50.259094,334432.234432,167256410.256410,111055677.655678,92.371422,1,2,1,2,2,40.000000
2025-11-11 12:09:01.426,1.664044087005475,1.025476127193336,0.3023452416769831,1.830722240344234,1.553406243452679,0.5028041326071275,0.190423672049631,1.682159980308093,1.12886248913822,0.1903950081289615,0.3612321395580089,1.167041588107852,1.002189324062849,0.2229878636547583,0.6098062274979095,0.5960183259224675,0.6762869305457996,-0.1673641023485298,0.3322495619875795,0.8209944033409827,797.8021978021978,798.2051282051282,591.0989010989011,788.5347985347986,583.4432234432235,-0.217834,0.216980,0.809998,-2.908478,12.815247,22.871552,340879.120879,168775457.875458,120750183.150183,92.482727,1,2,1,2,2,40.000000
2025-11-11 12:09:01.666,,,,,,,,,,,,,,,,,,,,,,,,,,,,,,,,,,,,,,,,,,/muse/elements/blink
2025-11-11 12:09:01.908,,,,,,,,,,,,,,,,,,,,,,,,,,,,,,,,,,,,,,,,,,/muse/elements/blink
2025-11-11 12:09:02.473,1.664044087005475,1.273314925765762,0.3023452416769831,1.830722240344234,1.553406243452679,1.122409816797284,0.190423672049631,1.682159980308093,1.12886248913822,0.5984578983706321,0.3612321395580089,1.167041588107852,1.002189324062849,0.4515574101413492,0.6098062274979095,0.5960183259224675,0.6762869305457996,-0.1578783433542164,0.3322495619875795,0.8209944033409827,804.6520146520147,805.0549450549451,624.5421245421246,792.1611721611722,703.1135531135532,-0.270996,0.021423,0.928528,-2.549591,-1.271057,0.919647,333626.373626,168844761.904762,120522124.542125,92.482727,1,2,1,2,2,40.000000
2025-11-11 12:09:03.450,0.8921371297208911,0.8328279202369122,0.3023452416769831,1.593768906715544,0.7446983526706731,0.8425564105891953,0.190423672049631,1.017113298284015,0.9077975958398764,0.2991112422511538,0.3612321395580089,1.132159789036781,0.8406450633165178,0.2415335609947765,0.6098062274979095,0.739053610900744,0.4711611674238058,-0.2157847257025145,0.3322495619875795,0.4033268366765736,804.6520146520147,791.7582417582418,953.7362637362637,790.5494505494506,651.1355311355312,-0.394775,0.073242,1.218445,5.674896,6.788940,-7.962799,352161.172161,168827032.967033,117547692.307692,92.482727,1,1,1,4,1,40.000000
2025-11-11 12:09:04.500,1.145917222611809,0.7146919214276797,0.3023452416769831,1.614065739063603,0.5907753964423802,0.4748901775064691,0.190423672049631,1.020386326933765,0.9996813286916661,0.1654093296184095,0.3612321395580089,1.150186129333844,0.7494962501560515,0.1007203650293907,0.6098062274979095,0.7258843671362339,0.4387430802125771,-0.07960177225982243,0.3322495619875795,0.4290668518425378,813.5164835164835,798.6080586080586,502.8571428571429,814.7252747252747,637.8388278388279,-0.195557,0.132568,0.800903,1.263580,-4.276733,-53.997498,340879.120879,171703956.043956,126070476.190476,92.482727,1,1,1,2,1,40.000000
2025-11-11 12:09:04.871,,,,,,,,,,,,,,,,,,,,,,,,,,,,,,,,,,,,,,,,,,/muse/elements/blink
2025-11-11 12:09:05.226,,,,,,,,,,,,,,,,,,,,,,,,,,,,,,,,,,,,,,,,,,/muse/elements/blink
2025-11-11 12:09:05.487,1.158498509576696,0.7830592911737871,0.3023452416769831,1.698627702658707,0.4226654258850849,0.5039923980703261,0.190423672049631,1.062017291652749,0.5803449119912205,0.4965368244599263,0.3612321395580089,1.14872749975235,0.3904027112925274,0.1633303582428927,0.6098062274979095,0.7083754912808368,0.3307419406497958,-0.1191475640717189,0.3322495619875795,0.4362083921290234,817.1428571428571,826.8131868131868,1062.124542124542,810.6959706959707,655.9706959706959,-0.341614,0.183655,0.900513,17.211609,-2.601929,-44.285126,338461.538462,174849230.769231,117701611.721612,92.482727,1,1,1,2,1,40.000000
2025-11-11 12:09:05.861,,,,,,,,,,,,,,,,,,,,,,,,,,,,,,,,,,,,,,,,,,/muse/elements/blink
2025-11-11 12:09:06.455,1.129126239667235,1.095915633715429,0.3023452416769831,1.698627702658707,0.4436237418171402,0.752586118255262,0.190423672049631,1.062017291652749,0.2456341172661561,0.4964634838384059,0.3612321395580089,1.14872749975235,0.2851887103207751,0.2341286391929174,0.6098062274979095,0.7083754912808368,0.3727626720462062,-0.2617445815442366,0.3322495619875795,0.4362083921290234,835.6776556776557,850.1831501831502,979.1208791208792,811.0989010989011,724.0659340659341,-0.373657,0.127441,0.952759,5.585175,8.052521,-12.643280,309450.549451,163444688.644689,94107619.047619,92.482727,1,1,1,2,1,40.000000
2025-11-11 12:09:07.451,1.129126239667235,1.125765896547113,0.3023452416769831,1.698627702658707,0.4436237418171402,0.8037807803793069,0.190423672049631,1.062017291652749,0.2456341172661561,0.4865523572145407,0.3612321395580089,1.14872749975235,0.2851887103207751,0.2509720086687759,0.6098062274979095,0.7083754912808368,0.3727626720462062,-0.2238335304015744,0.3322495619875795,0.4362083921290234,910.2197802197802,814.3223443223443,383.1868131868132,896.5201465201466,514.1391941391942,-0.267822,0.123657,0.753052,26.467896,-13.091888,-93.729248,312673.992674,158827106.227106,100023443.223443,92.482727,1,2,1,4,2,40.000000
2025-11-11 12:09:07.569,,,,,,,,,,,,,,,,,,,,,,,,,,,,,,,,,,,,,,,,,,/muse/elements/blink
2025-11-11 12:09:08.440,1.129126239667235,1.125765896547113,0.3023452416769831,1.698627702658707,0.4436237418171402,0.8037807803793069,0.190423672049631,1.062017291652749,0.2456341172661561,0.4865523572145407,0.3612321395580089,1.14872749975235,0.2851887103207751,0.2509720086687759,0.6098062274979095,0.7083754912808368,0.3727626720462062,-0.2238335304015744,0.3322495619875795,0.4362083921290234,697.0695970695971,836.8864468864469,799.4139194139194,689.8168498168499,772.8205128205128,-0.193298,0.121216,0.998901,13.764801,-12.583466,-7.028198,322344.322344,158139706.959707,101060586.080586,101.593803,1,2,1,2,2,40.000000
2025-11-11 12:09:08.672,,,,,,,,,,,,,,,,,,,,,,,,,,,,,,,,,,,,,,,,,,/muse/elements/blink
2025-11-11 12:09:09.448,,,,,,,,,,,,,,,,,,,,,,,,,,,,,,,,,,,,,,,,,,/muse/elements/blink
2025-11-11 12:09:09.449,1.129126239667235,1.125765896547113,0.3023452416769831,1.698627702658707,0.4436237418171402,0.8037807803793069,0.190423672049631,1.062017291652749,0.2456341172661561,0.4865523572145407,0.3612321395580089,1.14872749975235,0.2851887103207751,0.2509720086687759,0.6098062274979095,0.7083754912808368,0.3727626720462062,-0.2238335304015744,0.3322495619875795,0.4362083921290234,813.5164835164835,783.2967032967033,543.956043956044,841.3186813186813,1148.754578754579,-0.277466,0.258972,0.896240,-10.033875,-3.633728,15.387268,334432.234432,157403956.043956,101495750.915751,134.445938,1,2,1,4,2,40.000000
2025-11-11 12:09:10.428,1.129126239667235,0.9982277773859705,0.3023452416769831,1.698627702658707,0.4436237418171402,0.438299155828859,0.190423672049631,1.062017291652749,0.2456341172661561,0.4341089805890245,0.3612321395580089,1.14872749975235,0.2851887103207751,0.2532994749472866,0.6098062274979095,0.7083754912808368,0.3727626720462062,0.18133913047831,0.3322495619875795,0.4362083921290234,850.1831501831502,803.8461538461539,953.7362637362637,804.6520146520147,558.8644688644689,-0.380371,0.020691,0.961853,11.753540,12.546082,5.540314,357802.197802,156931721.611722,97235970.695971,147.813248,1,2,1,4,2,40.000000
2025-11-11 12:09:11.435,1.129126239667235,0.8342266946579396,0.3023452416769831,1.698627702658707,0.4436237418171402,0.4424725864250537,0.190423672049631,1.062017291652749,0.2456341172661561,0.3083619269428848,0.3612321395580089,1.14872749975235,0.2851887103207751,0.2700408101941123,0.6098062274979095,0.7083754912808368,0.3727626720462062,0.184285126161536,0.3322495619875795,0.4362083921290234,755.4945054945055,780.4761904761905,620.5128205128206,747.4358974358975,675.7142857142858,-0.426514,0.223633,0.908752,-17.548065,14.564819,28.583832,482710.622711,156311208.791209,100203150.183150,126.090775,1,2,1,2,2,40.000000
2025-11-11 12:09:11.559,,,,,,,,,,,,,,,,,,,,,,,,,,,,,,,,,,,,,,,,,,/muse/elements/blink
2025-11-11 12:09:12.419,1.129126239667235,1.056468753267285,0.3023452416769831,1.698627702658707,0.4436237418171402,0.5446791110311183,0.190423672049631,1.062017291652749,0.2456341172661561,-0.2886480790496871,0.3612321395580089,1.14872749975235,0.2851887103207751,0.1738140890887108,0.6098062274979095,0.7083754912808368,0.3727626720462062,0.1286728589230532,0.3322495619875795,0.4362083921290234,763.956043956044,780.4761904761905,515.3479853479854,794.5787545787546,838.901098901099,-0.343201,0.195435,0.909058,-8.912354,-7.304840,36.853180,630183.150183,158345201.465201,112205641.025641,126.090775,1,2,1,4,2,40.000000
2025-11-11 12:09:13.141,,,,,,,,,,,,,,,,,,,,,,,,,,,,,,,,,,,,,,,,,,/muse/elements/blink
2025-11-11 12:09:13.499,1.129126239667235,0.5955291923675684,0.3023452416769831,1.698627702658707,0.4436237418171402,-0.003309355524827114,0.190423672049631,1.062017291652749,0.2456341172661561,0.1284629728008264,0.3612321395580089,1.14872749975235,0.2851887103207751,0.1914216356454081,0.6098062274979095,0.7083754912808368,0.3727626720462062,-0.02608715727734229,0.3322495619875795,0.4362083921290234,831.6483516483516,750.6593406593407,700.6959706959707,850.989010989011,743.4065934065934,-0.368652,0.090515,0.895874,-15.372314,2.519684,62.842560,330402.930403,160222857.142857,112693186.813187,126.090775,1,2,1,4,2,40.000000
2025-11-11 12:09:13.507,,,,,,,,,,,,,,,,,,,,,,,,,,,,,,,,,,,,,,,,,,/muse/elements/blink
2025-11-11 12:09:14.496,1.129126239667235,0.7206581935399172,0.3023452416769831,1.698627702658707,0.4436237418171402,-0.02851920581660455,0.190423672049631,1.062017291652749,0.2456341172661561,0.06192093756344609,0.3612321395580089,1.14872749975235,0.2851887103207751,0.2611420271112918,0.6098062274979095,0.7083754912808368,0.3727626720462062,-0.04817056336689877,0.3322495619875795,0.4362083921290234,820.3663003663004,777.6556776556777,649.5238095238095,846.5567765567765,673.2967032967033,-0.302795,0.234192,0.919006,-4.284210,6.078644,55.709686,328791.208791,166955018.315018,106172967.032967,126.090775,1,2,1,2,2,40.000000
2025-11-11 12:09:15.251,,,,,,,,,,,,,,,,,,,,,,,,,,,,,,,,,,,,,,,,,,/muse/elements/blink
2025-11-11 12:09:15.495,1.129126239667235,1.365593729916643,0.3023452416769831,1.698627702658707,0.4436237418171402,0.9256595782916314,0.190423672049631,1.062017291652749,0.2456341172661561,0.5853640426003389,0.3612321395580089,1.14872749975235,0.2851887103207751,0.2099074831553958,0.6098062274979095,0.7083754912808368,0.3727626720462062,-0.1898941416081875,0.3322495619875795,0.4362083921290234,788.9377289377289,792.5641025641025,734.9450549450549,791.7582417582418,670.4761904761905,-0.350647,0.087524,0.952637,-0.456085,7.596436,26.505280,332014.652015,166950989.010989,107051355.311355,101.510544,1,2,1,2,2,40.000000
2025-11-11 12:09:16.501,1.129126239667235,1.160013500706471,0.3023452416769831,1.698627702658707,0.4436237418171402,0.9588483553107938,0.190423672049631,1.062017291652749,0.2456341172661561,0.7309012475809203,0.3612321395580089,1.14872749975235,0.2851887103207751,0.1156419214733469,0.6098062274979095,0.7083754912808368,0.3727626720462062,-0.2998717267318403,0.3322495619875795,0.4362083921290234,785.7142857142858,774.4322344322345,492.3809523809524,777.2527472527473,563.6996336996338,-0.063110,0.050110,0.987305,1.151428,-41.002808,26.288452,344908.424908,185917728.937729,132174871.794872,107.300537,1,2,1,2,2,40.000000
2025-11-11 12:09:17.490,1.129126239667235,1.049025621037718,0.3023452416769831,1.698627702658707,0.4436237418171402,1.0021738615288,0.190423672049631,1.062017291652749,0.2456341172661561,0.715809241725739,0.3612321395580089,1.14872749975235,0.2851887103207751,0.1468863552676938,0.6098062274979095,0.7083754912808368,0.3727626720462062,-0.2288542756366568,0.3322495619875795,0.4362083921290234,808.2783882783883,795.3846153846154,933.5897435897436,812.3076923076924,706.3369963369963,-0.024902,0.194580,0.919434,-24.860382,-5.615082,-27.118378,347326.007326,219268278.388278,143963809.523810,112.693321,1,2,1,2,2,40.000000
2025-11-11 12:09:17.608,,,,,,,,,,,,,,,,,,,,,,,,,,,,,,,,,,,,,,,,,,/muse/elements/blink
2025-11-11 12:09:17.854,,,,,,,,,,,,,,,,,,,,,,,,,,,,,,,,,,,,,,,,,,/muse/elements/blink
2025-11-11 12:09:18.475,1.129126239667235,0.830009500795663,0.3023452416769831,1.698627702658707,0.4436237418171402,0.1697791986367622,0.190423672049631,1.062017291652749,0.2456341172661561,0.1090199112580186,0.3612321395580089,1.14872749975235,0.2851887103207751,-0.128819739268684,0.6098062274979095,0.7083754912808368,0.3727626720462062,-0.2986970622079979,0.3322495619875795,0.4362083921290234,682.967032967033,776.0439560439561,603.992673992674,696.6666666666667,990.8058608058608,-0.132751,0.044922,1.006470,-0.530853,11.820831,-62.423859,337655.677656,200011428.571429,134336190.476190,112.693321,1,2,1,2,2,40.000000
2025-11-11 12:09:18.707,,,,,,,,,,,,,,,,,,,,,,,,,,,,,,,,,,,,,,,,,,/muse/elements/blink
2025-11-11 12:09:19.436,1.129126239667235,0.8706977213823216,0.3023452416769831,1.698627702658707,0.4436237418171402,0.1341871799085495,0.190423672049631,1.062017291652749,0.2456341172661561,-0.0420311217431056,0.3612321395580089,1.14872749975235,0.2851887103207751,-0.09264894482903505,0.6098062274979095,0.7083754912808368,0.3727626720462062,-0.3594569050761622,0.3322495619875795,0.4362083921290234,797.8021978021978,819.5604395604396,524.2124542124542,796.996336996337,626.5567765567765,-0.127991,0.120178,0.884644,19.723816,4.859924,-25.316467,348131.868132,192660366.300366,128485641.025641,112.693321,1,2,1,2,2,40.000000
2025-11-11 12:09:19.561,,,,,,,,,,,,,,,,,,,,,,,,,,,,,,,,,,,,,,,,,,/muse/elements/blink
2025-11-11 12:09:19.920,,,,,,,,,,,,,,,,,,,,,,,,,,,,,,,,,,,,,,,,,,/muse/elements/blink
2025-11-11 12:09:20.169,,,,,,,,,,,,,,,,,,,,,,,,,,,,,,,,,,,,,,,,,,/muse/elements/blink
2025-11-11 12:09:20.416,1.129126239667235,1.117247945314219,0.3023452416769831,1.698627702658707,0.4436237418171402,1.050996549195945,0.190423672049631,1.062017291652749,0.2456341172661561,0.8619077489781243,0.3612321395580089,1.14872749975235,0.2851887103207751,0.546233489671283,0.6098062274979095,0.7083754912808368,0.3727626720462062,0.4095639519511355,0.3322495619875795,0.4362083921290234,885.2380952380953,828.021978021978,475.4578754578754,891.6849816849817,718.8278388278388,-0.266968,0.253479,1.010071,36.479340,-25.787506,-49.623566,338461.538462,187601978.021978,124386227.106227,112.693321,1,2,1,2,2,40.000000
2025-11-11 12:09:21.252,,,,,,,,,,,,,,,,,,,,,,,,,,,,,,,,,,,,,,,,,,/muse/elements/blink
2025-11-11 12:09:21.488,1.129126239667235,1.167783019431739,0.3023452416769831,1.698627702658707,0.4436237418171402,1.116380913773673,0.190423672049631,1.062017291652749,0.2456341172661561,0.8753259111350085,0.3612321395580089,1.14872749975235,0.2851887103207751,0.4626723151130009,0.6098062274979095,0.7083754912808368,0.3727626720462062,0.3061075432208094,0.3322495619875795,0.4362083921290234,867.9120879120879,799.0109890109891,763.1501831501831,847.3626373626374,884.4322344322345,-0.161194,-0.000793,0.949341,-13.353577,-26.011810,-37.137299,323150.183150,183500146.520147,119035311.355311,112.693321,1,2,1,2,2,40.000000
2025-11-11 12:09:22.088,,,,,,,,,,,,,,,,,,,,,,,,,,,,,,,,,,,,,,,,,,/muse/elements/blink
2025-11-11 12:09:22.455,1.129126239667235,0.8145628203578862,0.3023452416769831,1.698627702658707,0.4436237418171402,0.06051706849311264,0.190423672049631,1.062017291652749,0.2456341172661561,0.5471078015124005,0.3612321395580089,1.14872749975235,0.2851887103207751,0.2368679892745756,0.6098062274979095,0.7083754912808368,0.3727626720462062,0.09667550708953057,0.3322495619875795,0.4362083921290234,763.956043956044,749.8534798534798,859.047619047619,794.981684981685,515.3479853479854,0.084595,0.174194,0.981995,0.112152,-5.787048,-21.712646,334432.234432,211264468.864469,137537069.597070,112.693321,1,2,1,2,2,40.000000
2025-11-11 12:09:23.458,1.129126239667235,1.059330666651316,0.3023452416769831,1.698627702658707,0.4436237418171402,0.1505553635271224,0.190423672049631,1.062017291652749,0.2456341172661561,0.4557012371600553,0.3612321395580089,1.14872749975235,0.2851887103207751,0.07384941523265137,0.6098062274979095,0.7083754912808368,0.3727626720462062,0.1358066981149771,0.3322495619875795,0.4362083921290234,784.1025641025641,839.7069597069598,544.3589743589744,802.6373626373627,762.7472527472528,0.257324,0.151123,0.932434,-8.860016,2.863617,-33.436279,406959.706960,284802490.842491,156234652.014652,108.825043,1,2,1,2,2,40.000000
2025-11-11 12:09:23.578,,,,,,,,,,,,,,,,,,,,,,,,,,,,,,,,,,,,,,,,,,/muse/elements/blink
2025-11-11 12:09:24.299,,,,,,,,,,,,,,,,,,,,,,,,,,,,,,,,,,,,,,,,,,/muse/elements/blink
2025-11-11 12:09:24.427,1.129126239667235,1.059330666651316,0.3023452416769831,1.698627702658707,0.4436237418171402,0.1505553635271224,0.190423672049631,1.062017291652749,0.2456341172661561,0.4557012371600553,0.3612321395580089,1.14872749975235,0.2851887103207751,0.07384941523265137,0.6098062274979095,0.7083754912808368,0.3727626720462062,0.1358066981149771,0.3322495619875795,0.4362083921290234,819.96336996337,782.0879120879121,535.8974358974359,812.7106227106227,753.8827838827839,0.244995,0.088013,0.988403,-8.658142,-25.854797,14.774170,394871.794872,254453772.893773,152409230.769231,96.135803,1,2,2,2,2,40.000000
2025-11-11 12:09:25.499,1.129126239667235,1.059330666651316,0.3023452416769831,1.698627702658707,0.4436237418171402,0.1505553635271224,0.190423672049631,1.062017291652749,0.2456341172661561,0.4557012371600553,0.3612321395580089,1.14872749975235,0.2851887103207751,0.07384941523265137,0.6098062274979095,0.7083754912808368,0.3727626720462062,0.1358066981149771,0.3322495619875795,0.4362083921290234,827.2161172161173,796.996336996337,972.2710622710623,788.5347985347986,629.7802197802198,0.107178,0.156494,0.924133,4.889832,9.660034,41.421509,469816.849817,242329597.069597,148134139.194139,96.135803,1,2,1,2,2,40.000000
2025-11-11 12:09:26.469,,,,,,,,,,,,,,,,,,,,,,,,,,,,,,,,,,,,,,,,,,/muse/elements/blink
2025-11-11 12:09:26.473,1.129126239667235,0.6187646579502863,0.3023452416769831,1.698627702658707,0.4436237418171402,0.2012998313007594,0.190423672049631,1.062017291652749,0.2456341172661561,0.2785731997742796,0.3612321395580089,1.14872749975235,0.2851887103207751,0.08455599356306971,0.6098062274979095,0.7083754912808368,0.3727626720462062,-0.04576868006756244,0.3322495619875795,0.4362083921290234,861.4652014652015,839.3040293040293,806.6666666666667,818.7545787545788,693.040293040293,-0.103088,0.203247,0.958984,0.261688,9.323578,28.367004,492380.952381,205286593.406593,131254578.754579,96.135803,1,2,1,2,2,40.000000
2025-11-11 12:09:26.957,,,,,,,,,,,,,,,,,,,,,,,,,,,,,,,,,,,,,,,,,,/muse/elements/blink
2025-11-11 12:09:27.449,1.129126239667235,0.5120749420250554,0.3023452416769831,1.698627702658707,0.4436237418171402,0.2153324289805953,0.190423672049631,1.062017291652749,0.2456341172661561,-0.01803703006585777,0.3612321395580089,1.14872749975235,0.2851887103207751,0.1467488547583637,0.6098062274979095,0.7083754912808368,0.3727626720462062,-0.04169911878171327,0.3322495619875795,0.4362083921290234,829.2307692307693,864.2857142857143,719.6336996336996,819.5604395604396,877.1794871794872,-0.285522,0.135010,0.904236,-11.162872,32.972717,63.694916,325567.765568,190046959.706960,116291355.311355,96.135803,1,2,1,2,2,40.000000
2025-11-11 12:09:27.932,,,,,,,,,,,,,,,,,,,,,,,,,,,,,,,,,,,,,,,,,,/muse/elements/blink
2025-11-11 12:09:28.297,,,,,,,,,,,,,,,,,,,,,,,,,,,,,,,,,,,,,,,,,,/muse/elements/blink
2025-11-11 12:09:28.415,1.129126239667235,0.5120749420250554,0.3023452416769831,1.698627702658707,0.4436237418171402,0.2153324289805953,0.190423672049631,1.062017291652749,0.2456341172661561,-0.01803703006585777,0.3612321395580089,1.14872749975235,0.2851887103207751,0.1467488547583637,0.6098062274979095,0.7083754912808368,0.3727626720462062,-0.04169911878171327,0.3322495619875795,0.4362083921290234,815.934065934066,801.4285714285714,686.996336996337,815.934065934066,833.2600732600733,-0.241028,0.187012,0.899475,-21.166840,14.602203,27.514648,336043.956044,197169157.509158,123635970.695971,96.135803,1,2,1,2,2,40.000000
2025-11-11 12:09:29.415,1.129126239667235,0.5120749420250554,0.3023452416769831,1.698627702658707,0.4436237418171402,0.2153324289805953,0.190423672049631,1.062017291652749,0.2456341172661561,-0.01803703006585777,0.3612321395580089,1.14872749975235,0.2851887103207751,0.1467488547583637,0.6098062274979095,0.7083754912808368,0.3727626720462062,-0.04169911878171327,0.3322495619875795,0.4362083921290234,711.1721611721612,834.0659340659341,541.941391941392,707.948717948718,895.7142857142858,-0.386963,0.020508,0.827454,-0.770111,14.400330,36.359711,341684.981685,199727765.567766,127659633.699634,96.135803,1,2,1,2,2,40.000000
2025-11-11 12:09:29.658,,,,,,,,,,,,,,,,,,,,,,,,,,,,,,,,,,,,,,,,,,/muse/elements/blink
2025-11-11 12:09:30.028,,,,,,,,,,,,,,,,,,,,,,,,,,,,,,,,,,,,,,,,,,/muse/elements/blink
2025-11-11 12:09:30.500,1.129126239667235,0.8934223948250002,0.3023452416769831,1.698627702658707,0.4436237418171402,0.7826374271133825,0.190423672049631,1.062017291652749,0.2456341172661561,0.750499034680245,0.3612321395580089,1.14872749975235,0.2851887103207751,0.1443590520818709,0.6098062274979095,0.7083754912808368,0.3727626720462062,-0.3567785658926065,0.3322495619875795,0.4362083921290234,843.7362637362637,786.1172161172161,750.2564102564103,830.8424908424909,656.3736263736264,-0.305725,0.181335,1.329956,-2.033691,10.138550,14.415283,361025.641026,238207619.047619,149258315.018315,99.031990,1,2,1,2,2,40.000000
2025-11-11 12:09:31.008,,,,,,,,,,,,,,,,,,,,,,,,,,,,,,,,,,,,,,,,,,/muse/elements/blink
2025-11-11 12:09:31.499,1.129126239667235,1.109323605205184,0.3023452416769831,1.698627702658707,0.4436237418171402,0.02608794558596369,0.190423672049631,1.062017291652749,0.2456341172661561,0.2547315410182853,0.3612321395580089,1.14872749975235,0.2851887103207751,0.1072422049113567,0.6098062274979095,0.7083754912808368,0.3727626720462062,-0.4613513855724796,0.3322495619875795,0.4362083921290234,795.3846153846154,801.025641025641,630.5860805860806,808.2783882783883,624.9450549450549,-0.149658,0.196655,0.896851,1.757050,-1.981354,-18.549957,356190.476190,238770915.750916,148011648.351648,99.478775,1,2,1,2,2,40.000000
2025-11-11 12:09:32.011,,,,,,,,,,,,,,,,,,,,,,,,,,,,,,,,,,,,,,,,,,/muse/elements/blink
2025-11-11 12:09:32.499,1.129126239667235,1.064206843943763,0.3023452416769831,1.698627702658707,0.4436237418171402,0.1325005306828116,0.190423672049631,1.062017291652749,0.2456341172661561,0.1409016306897116,0.3612321395580089,1.14872749975235,0.2851887103207751,0.1427957339462441,0.6098062274979095,0.7083754912808368,0.3727626720462062,-0.3750632056288845,0.3322495619875795,0.4362083921290234,801.8315018315019,875.5677655677656,590.6959706959707,797.8021978021978,655.5677655677656,-0.249451,0.071533,0.912354,12.276917,-16.845245,-31.148376,393260.073260,217755677.655678,141552673.992674,99.478775,1,2,1,2,2,40.000000
2025-11-11 12:09:32.760,,,,,,,,,,,,,,,,,,,,,,,,,,,,,,,,,,,,,,,,,,/muse/elements/blink
2025-11-11 12:09:33.499,1.129126239667235,1.044988987502745,0.3023452416769831,1.698627702658707,0.4436237418171402,0.2687781345828362,0.190423672049631,1.062017291652749,0.2456341172661561,0.06891545752827676,0.3612321395580089,1.14872749975235,0.2851887103207751,0.2268037018521172,0.6098062274979095,0.7083754912808368,0.3727626720462062,-0.3094388421359831,0.3322495619875795,0.4362083921290234,802.2344322344322,824.7985347985348,890.8791208791209,818.3516483516484,627.3626373626374,-0.338440,0.220154,0.939453,-0.112152,13.398438,-23.574371,373113.553114,209345714.285714,135279047.619048,99.478775,1,2,1,2,2,40.000000
2025-11-11 12:09:34.377,,,,,,,,,,,,,,,,,,,,,,,,,,,,,,,,,,,,,,,,,,/muse/elements/blink
2025-11-11 12:09:34.499,1.129126239667235,1.044988987502745,0.3023452416769831,1.698627702658707,0.4436237418171402,0.2687781345828362,0.190423672049631,1.062017291652749,0.2456341172661561,0.06891545752827676,0.3612321395580089,1.14872749975235,0.2851887103207751,0.2268037018521172,0.6098062274979095,0.7083754912808368,0.3727626720462062,-0.3094388421359831,0.3322495619875795,0.4362083921290234,921.0989010989011,791.3553113553114,831.6483516483516,867.5091575091575,637.032967032967,-0.168335,0.080933,1.095459,3.304749,-18.863983,-64.315491,352967.032967,227856336.996337,143817948.717949,99.478775,1,2,1,2,2,40.000000
2025-11-11 12:09:35.500,1.129126239667235,1.044988987502745,0.3023452416769831,1.698627702658707,0.4436237418171402,0.2687781345828362,0.190423672049631,1.062017291652749,0.2456341172661561,0.06891545752827676,0.3612321395580089,1.14872749975235,0.2851887103207751,0.2268037018521172,0.6098062274979095,0.7083754912808368,0.3727626720462062,-0.3094388421359831,0.3322495619875795,0.4362083921290234,815.5311355311355,792.1611721611722,603.992673992674,796.1904761904763,818.7545787545788,0.048584,0.130005,0.996704,3.656158,-20.247192,-32.568970,344908.424908,243833333.333333,149508131.868132,99.478775,1,2,1,2,2,40.000000
2025-11-11 12:09:36.500,0.8665035191124457,0.663442501135481,0.3023452416769831,0.804370559672446,0.7603555295689677,0.2284042011699829,0.190423672049631,0.6870003323468522,0.2000141772600423,0.2903688634173954,0.3612321395580089,0.6675311964573711,1.064275234765248,0.06793133770638679,0.6098062274979095,0.9391575782337177,0.9027021882458984,-0.2273355052310843,0.3322495619875795,0.8338628636720186,746.2271062271062,796.5934065934066,799.8168498168499,821.5750915750916,671.2820512820513,0.104858,0.234436,0.974731,-3.409424,-14.632111,-38.991547,344908.424908,251085274.725275,152132820.512821,99.478775,1,1,1,2,1,40.000000
2025-11-11 12:09:37.496,0.9209305348664975,0.916429729797596,0.3023452416769831,0.7832972252736864,0.7937483768669968,0.5196371578315442,0.190423672049631,0.8358404890899142,0.1446216089428229,0.5051972252788575,0.3612321395580089,0.7268629369868423,1.069354037736638,-0.01530726853922202,0.6098062274979095,0.9402137746695531,0.8820936575471808,-0.1722076995399703,0.3322495619875795,0.7899276272004837,821.5750915750916,805.0549450549451,952.5274725274726,830.4395604395604,611.6483516483516,-0.067139,0.159424,0.927429,8.964691,12.052612,-44.718781,348937.728938,232321611.721612,144987252.747253,99.478775,1,1,1,2,1,40.000000
2025-11-11 12:09:37.763,,,,,,,,,,,,,,,,,,,,,,,,,,,,,,,,,,,,,,,,,,/muse/elements/blink
2025-11-11 12:09:38.457,0.9209305348664975,1.176212105752237,0.3023452416769831,0.7672378043949065,0.7937483768669968,0.3785678675831498,0.190423672049631,0.9260731675666379,0.1446216089428229,0.4416223998748391,0.3612321395580089,0.7268629369868423,1.069354037736638,0.06242456333173788,0.6098062274979095,0.9349125648773032,0.8820936575471808,-0.1816369805074346,0.3322495619875795,0.7485502223198482,831.6483516483516,807.0695970695971,584.6520146520147,813.919413919414,1101.611721611722,-0.278442,0.262451,1.174500,2.444916,2.452393,8.620758,366666.666667,217554212.454212,138668498.168498,99.945526,1,1,1,2,1,40.000000
2025-11-11 12:09:39.461,0.9209305348664975,1.071614080776787,0.3023452416769831,0.7672378043949065,0.7937483768669968,0.2622543197135557,0.190423672049631,0.9260731675666379,0.1446216089428229,0.2260529500182239,0.3612321395580089,0.7268629369868423,1.069354037736638,0.1886724155196665,0.6098062274979095,0.9349125648773032,0.8820936575471808,-0.3247235006119914,0.3322495619875795,0.7485502223198482,778.4615384615385,800.6227106227107,572.5641025641025,814.7252747252747,793.7728937728938,-0.084229,0.268494,0.943909,8.762817,-2.699127,12.703094,502051.282051,240157802.197802,150046446.886447,100.147125,1,2,1,2,2,40.000000
2025-11-11 12:09:39.955,,,,,,,,,,,,,,,,,,,,,,,,,,,,,,,,,,,,,,,,,,/muse/elements/blink
2025-11-11 12:09:40.438,0.9209305348664975,1.288686424455426,0.3023452416769831,0.7672378043949065,0.7937483768669968,0.8515256458375775,0.190423672049631,0.9260731675666379,0.1446216089428229,0.5552322873560813,0.3612321395580089,0.7268629369868423,1.069354037736638,0.1624364373732818,0.6098062274979095,0.9349125648773032,0.8820936575471808,-0.243538515250252,0.3322495619875795,0.7485502223198482,789.3406593406594,1060.512820512821,1005.311355311355,782.893772893773,715.6043956043957,-0.320312,0.070679,0.882690,-7.970276,11.118011,40.890656,725274.725275,203091428.571429,128717728.937729,94.379463,1,2,1,2,2,40.000000
2025-11-11 12:09:41.459,0.5200308856164335,1.43872820217293,0.3023452416769831,1.048128182681572,0.7933241391935041,1.104516095301448,0.190423672049631,0.8097085548007492,0.4294072384390163,0.4570820926172813,0.3612321395580089,0.384177686500794,0.7699993848559142,0.2501085697323897,0.6098062274979095,0.8495488866980319,0.8731547627567875,-0.3184003030398701,0.3322495619875795,0.5604459885576351,820.3663003663004,699.0842490842491,875.1648351648352,793.7728937728938,794.1758241758242,-0.257935,0.213196,0.921692,-11.626434,13.832092,45.272064,338461.538462,195694432.234432,123469157.509158,87.274940,1,2,1,2,2,40.000000
2025-11-11 12:09:41.833,,,,,,,,,,,,,,,,,,,,,,,,,,,,,,,,,,,,,,,,,,/muse/elements/blink
2025-11-11 12:09:42.451,0.5287165944057807,1.43872820217293,0.3023452416769831,1.067639908048093,0.7520424346272108,1.104516095301448,0.190423672049631,0.8241376330081754,0.4559783661630545,0.4570820926172813,0.3612321395580089,0.384177686500794,0.7589869277029176,0.2501085697323897,0.6098062274979095,0.8019379193082445,0.8515066203073235,-0.3184003030398701,0.3322495619875795,0.564462763563595,780.8791208791209,799.0109890109891,624.1391941391942,799.0109890109891,671.6849816849817,-0.379700,0.230103,0.871277,5.674896,20.920105,30.811920,336043.956044,196688058.608059,125126007.326007,82.757645,1,1,1,2,1,40.000000
2025-11-11 12:09:42.568,,,,,,,,,,,,,,,,,,,,,,,,,,,,,,,,,,,,,,,,,,/muse/elements/blink
2025-11-11 12:09:43.482,0.5063114932882988,1.43872820217293,0.3023452416769831,1.094551243447257,0.683924900840196,1.104516095301448,0.190423672049631,0.8429255730677567,0.4470935651695165,0.4570820926172813,0.3612321395580089,0.3403494683682277,0.6991492996335504,0.2501085697323897,0.6098062274979095,0.7584322691991737,0.8586638740447218,-0.3184003030398701,0.3322495619875795,0.5626264590904513,750.6593406593407,860.6593406593407,612.0512820512821,736.1538461538462,645.4945054945055,-0.284790,0.109619,1.088684,-40.703735,7.439423,56.300354,338461.538462,199652014.652015,125385494.505495,82.623962,1,1,1,2,1,40.000000
2025-11-11 12:09:43.723,,,,,,,,,,,,,,,,,,,,,,,,,,,,,,,,,,,,,,,,,,/muse/elements/blink
2025-11-11 12:09:43.975,,,,,,,,,,,,,,,,,,,,,,,,,,,,,,,,,,,,,,,,,,/muse/elements/blink
2025-11-11 12:09:44.473,0.5063114932882988,1.43872820217293,0.3023452416769831,1.094551243447257,0.683924900840196,1.104516095301448,0.190423672049631,0.8429255730677567,0.4470935651695165,0.4570820926172813,0.3612321395580089,0.3403494683682277,0.6991492996335504,0.2501085697323897,0.6098062274979095,0.7584322691991737,0.8586638740447218,-0.3184003030398701,0.3322495619875795,0.5626264590904513,810.6959706959707,801.025641025641,690.6227106227107,785.3113553113553,635.4212454212454,-0.103577,0.184387,0.917786,-17.129364,-8.239441,30.094147,361025.641026,237932820.512821,151289084.249084,82.623962,1,2,1,2,2,40.000000
2025-11-11 12:09:45.437,0.5063114932882988,1.43872820217293,0.3023452416769831,1.094551243447257,0.683924900840196,1.104516095301448,0.190423672049631,0.8429255730677567,0.4470935651695165,0.4570820926172813,0.3612321395580089,0.3403494683682277,0.6991492996335504,0.2501085697323897,0.6098062274979095,0.7584322691991737,0.8586638740447218,-0.3184003030398701,0.3322495619875795,0.5626264590904513,810.6959706959707,783.6996336996338,703.1135531135532,802.2344322344322,701.9047619047619,0.017700,-0.001282,1.007874,10.063782,-0.732727,-0.104675,366666.666667,248587106.227106,154967838.827839,82.623962,1,2,1,2,2,40.000000
2025-11-11 12:09:45.684,,,,,,,,,,,,,,,,,,,,,,,,,,,,,,,,,,,,,,,,,,/muse/elements/blink
2025-11-11 12:09:46.420,0.5063114932882988,0.6965923773546674,0.3023452416769831,1.094551243447257,0.683924900840196,0.5684299998505117,0.190423672049631,0.8429255730677567,0.4470935651695165,0.3947915804880151,0.3612321395580089,0.3403494683682277,0.6991492996335504,0.05029405536603547,0.6098062274979095,0.7584322691991737,0.8586638740447218,-0.2117882556112166,0.3322495619875795,0.5626264590904513,736.1538461538462,824.3956043956044,964.6153846153846,711.5750915750916,557.2527472527472,-0.047119,0.032776,1.171753,-15.813446,14.026489,-31.305389,398901.098901,246241245.421245,152311721.611722,82.623962,1,2,1,2,2,40.000000
2025-11-11 12:09:46.655,,,,,,,,,,,,,,,,,,,,,,,,,,,,,,,,,,,,,,,,,,/muse/elements/blink
2025-11-11 12:09:47.027,,,,,,,,,,,,,,,,,,,,,,,,,,,,,,,,,,,,,,,,,,/muse/elements/blink
2025-11-11 12:09:47.496,0.5063114932882988,0.9554024020722656,0.3023452416769831,1.094551243447257,0.683924900840196,0.7876664211493944,0.190423672049631,0.8429255730677567,0.4470935651695165,0.3676323511624843,0.3612321395580089,0.3403494683682277,0.6991492996335504,0.2235260742399547,0.6098062274979095,0.7584322691991737,0.8586638740447218,-0.2386665167903836,0.3322495619875795,0.5626264590904513,782.0879120879121,890.8791208791209,805.8608058608058,814.3223443223443,707.948717948718,-0.349792,0.223755,0.938110,18.968658,4.478607,-37.937317,468205.128205,201013919.413919,127367912.087912,82.623962,1,2,1,2,2,40.000000
2025-11-11 12:09:48.469,1.018409336476926,0.9554024020722656,0.3023452416769831,0.6690402168547461,0.6157980588304869,0.7876664211493944,0.190423672049631,0.7222448955396367,0.5404831226199034,0.3676323511624843,0.3612321395580089,0.5079521421794979,0.4828676357355687,0.2235260742399547,0.6098062274979095,0.4155325927002131,0.0734064558762095,-0.2386665167903836,0.3322495619875795,0.3165455303784053,765.9706959706959,816.7399267399268,853.4065934065934,751.4652014652015,702.7106227106227,-0.310486,0.067322,0.933777,12.837677,-6.759033,-35.529785,443223.443223,215657216.117216,136661098.901099,82.623962,1,1,1,2,1,40.000000
2025-11-11 12:09:49.208,,,,,,,,,,,,,,,,,,,,,,,,,,,,,,,,,,,,,,,,,,/muse/elements/blink
2025-11-11 12:09:49.467,1.018409336476926,0.9554024020722656,0.3023452416769831,0.5070025906343104,0.6157980588304869,0.7876664211493944,0.190423672049631,0.6200155310920775,0.5404831226199034,0.3676323511624843,0.3612321395580089,0.3040711890756814,0.4828676357355687,0.2235260742399547,0.6098062274979095,0.3737164452907564,0.0734064558762095,-0.2386665167903836,0.3322495619875795,0.1736754501111185,810.6959706959707,758.7179487179487,890.4761904761905,819.96336996337,527.032967032967,-0.429382,0.172119,0.932861,3.715973,20.374298,-9.764709,327985.347985,195177875.457875,122311135.531136,82.623962,1,1,1,2,1,40.000000
2025-11-11 12:09:50.299,,,,,,,,,,,,,,,,,,,,,,,,,,,,,,,,,,,,,,,,,,/muse/elements/blink
2025-11-11 12:09:50.426,0.9733730409104013,0.9554024020722656,0.3023452416769831,0.4091366544311163,0.5344951805509175,0.7876664211493944,0.190423672049631,0.5990950648620353,0.4955388236143933,0.3676323511624843,0.3612321395580089,0.3025027088619997,0.4821447981383116,0.2235260742399547,0.6098062274979095,0.4078948760710597,0.07513993222104789,-0.2386665167903836,0.3322495619875795,0.2022675829582091,819.1575091575091,779.6703296703297,990.4029304029305,807.8754578754579,805.0549450549451,-0.511536,0.042908,1.002014,5.839386,-5.816956,-21.107025,322344.322344,189285421.245421,117517875.457875,82.623962,1,1,1,2,1,40.000000
2025-11-11 12:09:51.351,,,,,,,,,,,,,,,,,,,,,,,,,,,,,,,,,,,,,,,,,,/muse/elements/blink
2025-11-11 12:09:51.401,1.238822831100971,0.9554024020722656,0.3023452416769831,0.4091366544311163,1.261110793144775,0.7876664211493944,0.190423672049631,0.5990950648620353,1.159187663657537,0.3676323511624843,0.3612321395580089,0.3025027088619997,1.119232799326485,0.2235260742399547,0.6098062274979095,0.4078948760710597,0.5733940542845339,-0.2386665167903836,0.3322495619875795,0.2022675829582091,890.4761904761905,811.9047619047619,278.4249084249084,861.8681318681319,639.047619047619,0.052490,0.088135,0.869812,13.248901,-59.799500,-90.738525,334432.234432,233357142.857143,148390402.930403,82.483437,1,1,1,2,1,40.000000
2025-11-11 12:09:51.626,,,,,,,,,,,,,,,,,,,,,,,,,,,,,,,,,,,,,,,,,,/muse/elements/blink
2025-11-11 12:09:52.402,1.221467767606539,0.9554024020722656,0.3023452416769831,0.4091366544311163,1.203183840734513,0.7876664211493944,0.190423672049631,0.5990950648620353,1.072722435790617,0.3676323511624843,0.3612321395580089,0.3025027088619997,1.165951673793272,0.2235260742399547,0.6098062274979095,0.4078948760710597,0.5871872160397086,-0.2386665167903836,0.3322495619875795,0.2022675829582091,757.5091575091575,821.978021978022,627.3626373626374,768.3882783882784,516.959706959707,0.345093,0.267517,0.932617,-3.768311,-18.153687,-22.594910,391648.351648,277238681.318681,165502051.282051,82.483437,1,1,1,2,1,40.000000
2025-11-11 12:09:53.132,,,,,,,,,,,,,,,,,,,,,,,,,,,,,,,,,,,,,,,,,,/muse/elements/blink
2025-11-11 12:09:53.281,,,,,,,,,,,,,,,,,,,,,,,,,,,,,,,,,,,,,,,,,,/muse/elements/jaw_clench
2025-11-11 12:09:53.402,1.221467767606539,0.9554024020722656,0.3023452416769831,0.4091366544311163,1.203183840734513,0.7876664211493944,0.190423672049631,0.5990950648620353,1.072722435790617,0.3676323511624843,0.3612321395580089,0.3025027088619997,1.165951673793272,0.2235260742399547,0.6098062274979095,0.4078948760710597,0.5871872160397086,-0.2386665167903836,0.3322495619875795,0.2022675829582091,850.989010989011,813.1135531135532,911.4285714285714,842.5274725274726,673.6996336996338,0.198914,0.095154,0.920898,-0.590668,9.024506,-12.127380,419047.619048,274493919.413919,165238534.798535,82.483437,1,1,1,2,1,40.000000
2025-11-11 12:09:53.959,,,,,,,,,,,,,,,,,,,,,,,,,,,,,,,,,,,,,,,,,,/muse/elements/blink
2025-11-11 12:09:54.384,,,,,,,,,,,,,,,,,,,,,,,,,,,,,,,,,,,,,,,,,,/muse/elements/blink
2025-11-11 12:09:54.402,1.221467767606539,0.8430737995497374,0.3023452416769831,0.4091366544311163,1.203183840734513,0.4562855463692236,0.190423672049631,0.5990950648620353,1.072722435790617,0.5217123509724912,0.3612321395580089,0.3025027088619997,1.165951673793272,0.1607622541396853,0.6098062274979095,0.4078948760710597,0.5871872160397086,-0.1602904442732778,0.3322495619875795,0.2022675829582091,541.1355311355311,880.4029304029305,703.919413919414,586.6666666666666,685.7875457875458,0.103027,0.225403,0.999329,9.024506,30.976410,48.576813,523809.523810,274617216.117216,165910622.710623,82.483437,1,2,1,2,2,40.000000
2025-11-11 12:09:54.574,,,,,,,,,,,,,,,,,,,,,,,,,,,,,,,,,,,,,,,,,,/muse/elements/blink
2025-11-11 12:09:55.000,,,,,,,,,,,,,,,,,,,,,,,,,,,,,,,,,,,,,,,,,,/muse/elements/blink
2025-11-11 12:09:55.402,1.221467767606539,1.070438043501165,0.3023452416769831,0.4091366544311163,1.203183840734513,0.6795943597352602,0.190423672049631,0.5990950648620353,1.072722435790617,0.4896353508746718,0.3612321395580089,0.3025027088619997,1.165951673793272,0.3028341604689157,0.6098062274979095,0.4078948760710597,0.5871872160397086,-0.2221851328560659,0.3322495619875795,0.2022675829582091,753.8827838827839,844.9450549450549,645.8974358974359,775.2380952380953,629.3772893772893,-0.305847,0.173889,0.922546,-12.486267,-6.497345,13.847046,1605274.725275,253850183.150183,154470622.710623,82.483437,1,2,1,2,2,40.000000
2025-11-11 12:09:56.409,1.221467767606539,1.238636317070457,0.3023452416769831,0.4091366544311163,1.203183840734513,1.032775721704706,0.190423672049631,0.5990950648620353,1.072722435790617,0.5999070835760317,0.3612321395580089,0.3025027088619997,1.165951673793272,0.3116400711657137,0.6098062274979095,0.4078948760710597,0.5871872160397086,-0.1829056106336131,0.3322495619875795,0.2022675829582091,856.6300366300367,768.7912087912088,751.8681318681319,877.985347985348,756.3003663003664,-0.377075,0.026062,0.894165,-19.992981,-3.439331,71.014709,1069377.289377,252291648.351648,152195677.655678,82.483437,1,2,1,2,2,40.000000
2025-11-11 12:09:56.421,,,,,,,,,,,,,,,,,,,,,,,,,,,,,,,,,,,,,,,,,,/muse/elements/blink
2025-11-11 12:09:57.019,,,,,,,,,,,,,,,,,,,,,,,,,,,,,,,,,,,,,,,,,,/muse/elements/blink
2025-11-11 12:09:57.402,1.221467767606539,1.209590233533432,0.3023452416769831,0.4091366544311163,1.203183840734513,1.081586516002962,0.190423672049631,0.5990950648620353,1.072722435790617,0.5868079356913697,0.3612321395580089,0.3025027088619997,1.165951673793272,0.3449184271905503,0.6098062274979095,0.4078948760710597,0.5871872160397086,-0.1848591159008277,0.3322495619875795,0.2022675829582091,713.992673992674,848.5714285714286,761.1355311355312,685.3846153846154,882.4175824175825,-0.322876,0.195618,0.880737,-17.675171,-1.510315,41.600952,361025.641026,258744175.824176,154977509.157509,87.555603,1,2,1,2,2,40.000000
2025-11-11 12:09:57.530,,,,,,,,,,,,,,,,,,,,,,,,,,,,,,,,,,,,,,,,,,/muse/elements/blink
2025-11-11 12:09:58.403,1.221467767606539,1.209590233533432,0.3023452416769831,0.4091366544311163,1.203183840734513,1.081586516002962,0.190423672049631,0.5990950648620353,1.072722435790617,0.5868079356913697,0.3612321395580089,0.3025027088619997,1.165951673793272,0.3449184271905503,0.6098062274979095,0.4078948760710597,0.5871872160397086,-0.1848591159008277,0.3322495619875795,0.2022675829582091,745.8241758241759,706.7399267399268,457.3260073260074,776.8498168498169,693.8461538461538,-0.420776,0.160339,1.049500,-1.943970,5.001984,35.955963,347326.007326,221200732.600733,132584249.084249,96.963005,1,2,1,2,2,40.000000
2025-11-11 12:09:58.579,,,,,,,,,,,,,,,,,,,,,,,,,,,,,,,,,,,,,,,,,,/muse/elements/blink
2025-11-11 12:09:58.834,,,,,,,,,,,,,,,,,,,,,,,,,,,,,,,,,,,,,,,,,,/muse/elements/blink
2025-11-11 12:09:59.403,1.221467767606539,1.209590233533432,0.3023452416769831,0.4091366544311163,1.203183840734513,1.081586516002962,0.190423672049631,0.5990950648620353,1.072722435790617,0.5868079356913697,0.3612321395580089,0.3025027088619997,1.165951673793272,0.3449184271905503,0.6098062274979095,0.4078948760710597,0.5871872160397086,-0.1848591159008277,0.3322495619875795,0.2022675829582091,799.8168498168499,815.934065934066,604.7985347985348,807.8754578754579,805.8608058608058,-0.303711,0.077820,0.852051,-18.437805,-2.400055,48.240356,373113.553114,259956996.336996,158599853.479853,96.963005,1,2,1,2,2,40.000000
2025-11-11 12:10:00.403,1.221467767606539,1.108466665032099,0.3023452416769831,0.4091366544311163,1.203183840734513,1.156467134423419,0.190423672049631,0.5990950648620353,1.072722435790617,0.6060712133968776,0.3612321395580089,0.3025027088619997,1.165951673793272,0.06047784945248345,0.6098062274979095,0.4078948760710597,0.5871872160397086,-0.1254444698966974,0.3322495619875795,0.2022675829582091,828.4249084249085,883.2234432234433,556.0439560439561,803.4432234432235,776.0439560439561,-0.155762,0.209656,0.990601,1.061707,-26.774445,1.480408,376336.996337,273329450.549451,165150695.970696,96.963005,1,2,1,2,2,40.000000
2025-11-11 12:10:01.181,,,,,,,,,,,,,,,,,,,,,,,,,,,,,,,,,,,,,,,,,,/muse/elements/blink
2025-11-11 12:10:01.405,1.221467767606539,1.108466665032099,0.3023452416769831,0.4091366544311163,1.203183840734513,1.156467134423419,0.190423672049631,0.5990950648620353,1.072722435790617,0.6060712133968776,0.3612321395580089,0.3025027088619997,1.165951673793272,0.06047784945248345,0.6098062274979095,0.4078948760710597,0.5871872160397086,-0.1254444698966974,0.3322495619875795,0.2022675829582091,798.6080586080586,840.1098901098901,911.8315018315019,821.1721611721612,684.981684981685,-0.200500,0.040527,0.904785,6.811371,-7.805786,-13.712463,400512.820513,271816849.816850,164191721.611722,96.963005,1,2,1,2,2,40.000000
2025-11-11 12:10:01.906,,,,,,,,,,,,,,,,,,,,,,,,,,,,,,,,,,,,,,,,,,/muse/elements/blink
2025-11-11 12:10:02.403,1.221467767606539,1.108466665032099,0.3023452416769831,0.4091366544311163,1.203183840734513,1.156467134423419,0.190423672049631,0.5990950648620353,1.072722435790617,0.6060712133968776,0.3612321395580089,0.3025027088619997,1.165951673793272,0.06047784945248345,0.6098062274979095,0.4078948760710597,0.5871872160397086,-0.1254444698966974,0.3322495619875795,0.2022675829582091,842.1245421245421,842.9304029304029,673.2967032967033,822.3809523809524,621.7216117216118,-0.313538,0.169373,0.977905,-0.568237,-2.684174,-37.099915,627765.567766,269500000.000000,162666227.106227,86.241562,1,2,1,2,2,40.000000
2025-11-11 12:10:02.502,,,,,,,,,,,,,,,,,,,,,,,,,,,,,,,,,,,,,,,,,,/muse/elements/blink
2025-11-11 12:10:03.405,1.221467767606539,1.108466665032099,0.3023452416769831,0.4091366544311163,1.203183840734513,1.156467134423419,0.190423672049631,0.5990950648620353,1.072722435790617,0.6060712133968776,0.3612321395580089,0.3025027088619997,1.165951673793272,0.06047784945248345,0.6098062274979095,0.4078948760710597,0.5871872160397086,-0.1254444698966974,0.3322495619875795,0.2022675829582091,777.2527472527473,877.5824175824176,876.7765567765568,782.893772893773,767.5824175824176,-0.298584,0.216431,0.746948,27.036133,4.127197,-26.273499,1146739.926740,256973699.633700,154494798.534799,86.241562,1,2,1,2,2,40.000000
2025-11-11 12:10:03.819,,,,,,,,,,,,,,,,,,,,,,,,,,,,,,,,,,,,,,,,,,/muse/elements/blink
2025-11-11 12:10:04.404,1.221467767606539,1.108466665032099,0.3023452416769831,0.4091366544311163,1.203183840734513,1.156467134423419,0.190423672049631,0.5990950648620353,1.072722435790617,0.6060712133968776,0.3612321395580089,0.3025027088619997,1.165951673793272,0.06047784945248345,0.6098062274979095,0.4078948760710597,0.5871872160397086,-0.1254444698966974,0.3322495619875795,0.2022675829582091,801.8315018315019,747.4358974358975,687.3992673992674,800.2197802197802,605.6043956043957,-0.320496,0.044556,0.989868,5.001984,-20.942535,-36.509247,355384.615385,240905641.025641,145361978.021978,86.241562,1,2,1,2,2,40.000000
2025-11-11 12:10:05.403,1.221467767606539,1.108466665032099,0.3023452416769831,0.4091366544311163,1.203183840734513,1.156467134423419,0.190423672049631,0.5990950648620353,1.072722435790617,0.6060712133968776,0.3612321395580089,0.3025027088619997,1.165951673793272,0.06047784945248345,0.6098062274979095,0.4078948760710597,0.5871872160397086,-0.1254444698966974,0.3322495619875795,0.2022675829582091,781.6849816849817,858.6446886446887,625.3479853479854,826.007326007326,672.0879120879121,-0.225403,0.159241,0.950134,10.878754,-14.303131,-27.671661,341684.981685,256144468.864469,155467472.527473,86.241562,1,2,1,2,2,40.000000
2025-11-11 12:10:06.404,1.221467767606539,1.108466665032099,0.3023452416769831,0.4091366544311163,1.203183840734513,1.156467134423419,0.190423672049631,0.5990950648620353,1.072722435790617,0.6060712133968776,0.3612321395580089,0.3025027088619997,1.165951673793272,0.06047784945248345,0.6098062274979095,0.4078948760710597,0.5871872160397086,-0.1254444698966974,0.3322495619875795,0.2022675829582091,918.6813186813187,911.4285714285714,790.1465201465202,890.4761904761905,716.007326007326,-0.125427,0.147461,1.055420,16.306915,-12.381592,-73.863373,343296.703297,262181978.021978,159937582.417582,89.865417,1,2,1,2,2,40.000000
2025-11-11 12:10:06.493,,,,,,,,,,,,,,,,,,,,,,,,,,,,,,,,,,,,,,,,,,/muse/elements/blink
2025-11-11 12:10:06.771,,,,,,,,,,,,,,,,,,,,,,,,,,,,,,,,,,,,,,,,,,/muse/elements/jaw_clench
2025-11-11 12:10:07.404,1.221467767606539,1.108466665032099,0.3023452416769831,0.4091366544311163,1.203183840734513,1.156467134423419,0.190423672049631,0.5990950648620353,1.072722435790617,0.6060712133968776,0.3612321395580089,0.3025027088619997,1.165951673793272,0.06047784945248345,0.6098062274979095,0.4078948760710597,0.5871872160397086,-0.1254444698966974,0.3322495619875795,0.2022675829582091,807.8754578754579,781.6849816849817,636.2271062271062,774.8351648351648,816.7399267399268,-0.047974,0.102173,0.856323,1.697235,0.231781,-35.096130,359413.919414,263402857.142857,158366959.706960,89.865417,1,2,1,2,2,40.000000
2025-11-11 12:10:07.689,,,,,,,,,,,,,,,,,,,,,,,,,,,,,,,,,,,,,,,,,,/muse/elements/blink
2025-11-11 12:10:07.795,,,,,,,,,,,,,,,,,,,,,,,,,,,,,,,,,,,,,,,,,,/muse/elements/jaw_clench
2025-11-11 12:10:07.881,,,,,,,,,,,,,,,,,,,,,,,,,,,,,,,,,,,,,,,,,,/muse/elements/blink
2025-11-11 12:10:08.404,1.221467767606539,1.108466665032099,0.3023452416769831,0.4091366544311163,1.203183840734513,1.156467134423419,0.190423672049631,0.5990950648620353,1.072722435790617,0.6060712133968776,0.3612321395580089,0.3025027088619997,1.165951673793272,0.06047784945248345,0.6098062274979095,0.4078948760710597,0.5871872160397086,-0.1254444698966974,0.3322495619875795,0.2022675829582091,821.1721611721612,831.6483516483516,646.3003663003664,809.4871794871796,891.6849816849817,-0.154724,0.222656,0.951050,-5.502930,-13.944244,-10.101166,394065.934066,264340073.260073,158939120.879121,89.865417,1,2,1,2,2,40.000000
2025-11-11 12:10:09.011,,,,,,,,,,,,,,,,,,,,,,,,,,,,,,,,,,,,,,,,,,/muse/elements/blink
2025-11-11 12:10:09.308,,,,,,,,,,,,,,,,,,,,,,,,,,,,,,,,,,,,,,,,,,/muse/elements/blink
2025-11-11 12:10:09.395,,,,,,,,,,,,,,,,,,,,,,,,,,,,,,,,,,,,,,,,,,/muse/elements/jaw_clench
2025-11-11 12:10:09.405,1.221467767606539,1.108466665032099,0.3023452416769831,0.4091366544311163,1.203183840734513,1.156467134423419,0.190423672049631,0.5990950648620353,1.072722435790617,0.6060712133968776,0.3612321395580089,0.3025027088619997,1.165951673793272,0.06047784945248345,0.6098062274979095,0.4078948760710597,0.5871872160397086,-0.1254444698966974,0.3322495619875795,0.2022675829582091,886.4468864468864,963.0036630036631,673.2967032967033,852.6007326007326,876.3736263736264,-0.198608,-0.007019,0.873352,-4.418793,-2.833710,26.968842,610842.490842,268423369.963370,161834578.754579,92.287529,1,2,1,2,2,40.000000
2025-11-11 12:10:09.628,,,,,,,,,,,,,,,,,,,,,,,,,,,,,,,,,,,,,,,,,,/muse/elements/jaw_clench
2025-11-11 12:10:10.406,1.221467767606539,1.108466665032099,0.3023452416769831,0.4091366544311163,1.203183840734513,1.156467134423419,0.190423672049631,0.5990950648620353,1.072722435790617,0.6060712133968776,0.3612321395580089,0.3025027088619997,1.165951673793272,0.06047784945248345,0.6098062274979095,0.4078948760710597,0.5871872160397086,-0.1254444698966974,0.3322495619875795,0.2022675829582091,782.893772893773,811.9047619047619,979.5238095238095,775.6410256410256,651.941391941392,-0.219604,0.106079,1.073792,-8.501129,12.067566,28.583832,1587545.787546,246677216.117216,146387032.967033,94.998940,1,2,1,2,2,40.000000
2025-11-11 12:10:10.609,,,,,,,,,,,,,,,,,,,,,,,,,,,,,,,,,,,,,,,,,,/muse/elements/jaw_clench
2025-11-11 12:10:10.758,,,,,,,,,,,,,,,,,,,,,,,,,,,,,,,,,,,,,,,,,,/muse/elements/blink
2025-11-11 12:10:11.404,1.221467767606539,1.108466665032099,0.3023452416769831,0.4091366544311163,1.203183840734513,1.156467134423419,0.190423672049631,0.5990950648620353,1.072722435790617,0.6060712133968776,0.3612321395580089,0.3025027088619997,1.165951673793272,0.06047784945248345,0.6098062274979095,0.4078948760710597,0.5871872160397086,-0.1254444698966974,0.3322495619875795,0.2022675829582091,869.5238095238095,845.7509157509157,887.6556776556777,838.0952380952381,769.1941391941392,-0.359253,0.229309,1.061523,-42.670135,23.671570,116.855011,589084.249084,232153186.813187,134019487.179487,89.579727,1,2,1,2,2,40.000000
2025-11-11 12:10:12.407,1.221467767606539,1.108466665032099,0.3023452416769831,0.4091366544311163,1.203183840734513,1.156467134423419,0.190423672049631,0.5990950648620353,1.072722435790617,0.6060712133968776,0.3612321395580089,0.3025027088619997,1.165951673793272,0.06047784945248345,0.6098062274979095,0.4078948760710597,0.5871872160397086,-0.1254444698966974,0.3322495619875795,0.2022675829582091,808.6813186813187,815.934065934066,506.8864468864469,782.4908424908425,585.8608058608058,-0.378662,0.078308,0.922241,-12.979736,-1.173859,16.710663,421465.201465,255262857.142857,156559413.919414,89.579727,1,2,1,2,2,40.000000
2025-11-11 12:10:13.404,1.221467767606539,1.108466665032099,0.3023452416769831,0.4091366544311163,1.203183840734513,1.156467134423419,0.190423672049631,0.5990950648620353,1.072722435790617,0.6060712133968776,0.3612321395580089,0.3025027088619997,1.165951673793272,0.06047784945248345,0.6098062274979095,0.4078948760710597,0.5871872160397086,-0.1254444698966974,0.3322495619875795,0.2022675829582091,808.6813186813187,963.8095238095239,923.5164835164835,813.919413919414,523.4065934065934,-0.279846,0.182556,0.893433,-8.112335,2.385101,28.606262,375531.135531,272600146.520146,167259633.699634,89.579727,1,2,1,2,2,40.000000
2025-11-11 12:10:14.169,,,,,,,,,,,,,,,,,,,,,,,,,,,,,,,,,,,,,,,,,,/muse/elements/blink
2025-11-11 12:10:14.403,1.221467767606539,1.108466665032099,0.3023452416769831,0.4091366544311163,1.203183840734513,1.156467134423419,0.190423672049631,0.5990950648620353,1.072722435790617,0.6060712133968776,0.3612321395580089,0.3025027088619997,1.165951673793272,0.06047784945248345,0.6098062274979095,0.4078948760710597,0.5871872160397086,-0.1254444698966974,0.3322495619875795,0.2022675829582091,861.4652014652015,899.3406593406594,1065.750915750916,812.7106227106227,723.2600732600732,-0.464722,0.059631,1.289612,8.329163,9.600220,-9.719849,343296.703297,234986593.406593,140783882.783883,88.519112,1,2,1,2,2,40.000000
2025-11-11 12:10:15.404,1.221467767606539,1.108466665032099,0.3023452416769831,0.4091366544311163,1.203183840734513,1.156467134423419,0.190423672049631,0.5990950648620353,1.072722435790617,0.6060712133968776,0.3612321395580089,0.3025027088619997,1.165951673793272,0.06047784945248345,0.6098062274979095,0.4078948760710597,0.5871872160397086,-0.1254444698966974,0.3322495619875795,0.2022675829582091,824.3956043956044,783.2967032967033,626.959706959707,799.0109890109891,730.9157509157509,-0.246338,0.039001,0.916748,2.504730,-2.325287,7.125397,418241.758242,276676190.476190,168708571.428571,88.519112,1,2,1,2,2,40.000000
2025-11-11 12:10:16.232,,,,,,,,,,,,,,,,,,,,,,,,,,,,,,,,,,,,,,,,,,/muse/elements/blink
2025-11-11 12:10:16.404,1.221467767606539,1.108466665032099,0.3023452416769831,0.7404255582808124,1.203183840734513,1.156467134423419,0.190423672049631,0.4465251564941691,1.072722435790617,0.6060712133968776,0.3612321395580089,0.359623661352995,1.165951673793272,0.06047784945248345,0.6098062274979095,0.549605795639966,0.5871872160397086,-0.1254444698966974,0.3322495619875795,0.06619804372660475,655.1648351648352,927.5457875457876,1040.769230769231,674.1025641025641,716.8131868131868,-0.097778,0.165100,0.961914,-8.306732,-32.740936,-25.137024,477875.457875,277460293.040293,169752967.032967,88.519112,1,1,1,2,1,40.000000
2025-11-11 12:10:16.616,,,,,,,,,,,,,,,,,,,,,,,,,,,,,,,,,,,,,,,,,,/muse/elements/blink
2025-11-11 12:10:17.404,1.221467767606539,1.108466665032099,0.3023452416769831,0.7047556794017705,1.203183840734513,1.156467134423419,0.190423672049631,0.4027871567972476,1.072722435790617,0.6060712133968776,0.3612321395580089,0.2968960876337878,1.165951673793272,0.06047784945248345,0.6098062274979095,0.4618681477775914,0.5871872160397086,-0.1254444698966974,0.3322495619875795,0.02127796365763339,479.8901098901099,1621.794871794872,1497.289377289377,537.9120879120879,769.1941391941392,-0.083435,0.022278,0.928650,-1.338348,-0.164490,-45.130005,354578.754579,209199853.479853,122829304.029304,88.519112,1,1,1,2,1,40.000000
2025-11-11 12:10:17.468,,,,,,,,,,,,,,,,,,,,,,,,,,,,,,,,,,,,,,,,,,/muse/elements/blink
2025-11-11 12:10:18.404,1.221467767606539,1.108466665032099,0.3023452416769831,0.7047556794017705,1.203183840734513,1.156467134423419,0.190423672049631,0.4027871567972476,1.072722435790617,0.6060712133968776,0.3612321395580089,0.2968960876337878,1.165951673793272,0.06047784945248345,0.6098062274979095,0.4618681477775914,0.5871872160397086,-0.1254444698966974,0.3322495619875795,0.02127796365763339,993.2234432234433,796.5934065934066,1348.205128205128,835.6776556776557,651.941391941392,-0.125061,0.058899,0.983887,-0.882263,1.973877,14.213409,332820.512821,214122051.282051,126343663.003663,88.519112,1,1,4,4,1,40.000000
2025-11-11 12:10:18.532,,,,,,,,,,,,,,,,,,,,,,,,,,,,,,,,,,,,,,,,,,/muse/elements/blink
2025-11-11 12:10:19.404,1.221467767606539,1.108466665032099,0.3023452416769831,0.7047556794017705,1.203183840734513,1.156467134423419,0.190423672049631,0.4027871567972476,1.072722435790617,0.6060712133968776,0.3612321395580089,0.2968960876337878,1.165951673793272,0.06047784945248345,0.6098062274979095,0.4618681477775914,0.5871872160397086,-0.1254444698966974,0.3322495619875795,0.02127796365763339,821.1721611721612,820.7692307692308,318.3150183150183,818.7545787545788,692.6373626373627,-0.144836,0.072632,0.984497,1.719666,-3.058014,7.364655,361025.641026,269917435.897436,166114505.494505,88.519112,1,2,2,4,2,40.000000
2025-11-11 12:10:20.412,1.221467767606539,1.108466665032099,0.3023452416769831,0.7047556794017705,1.203183840734513,1.156467134423419,0.190423672049631,0.4027871567972476,1.072722435790617,0.6060712133968776,0.3612321395580089,0.2968960876337878,1.165951673793272,0.06047784945248345,0.6098062274979095,0.4618681477775914,0.5871872160397086,-0.1254444698966974,0.3322495619875795,0.02127796365763339,803.4432234432235,727.2893772893773,354.5787545787546,811.0989010989011,1129.010989010989,-0.176758,0.061340,0.870850,4.904785,-3.633728,2.220612,353772.893773,255872087.912088,161590402.930403,88.519112,1,2,1,4,2,40.000000
2025-11-11 12:10:21.405,1.221467767606539,1.108466665032099,0.3023452416769831,0.7047556794017705,1.203183840734513,1.156467134423419,0.190423672049631,0.4027871567972476,1.072722435790617,0.6060712133968776,0.3612321395580089,0.2968960876337878,1.165951673793272,0.06047784945248345,0.6098062274979095,0.4618681477775914,0.5871872160397086,-0.1254444698966974,0.3322495619875795,0.02127796365763339,761.5384615384615,796.996336996337,558.8644688644689,794.1758241758242,489.96336996337,-0.159119,0.154846,0.993530,10.063782,-10.056305,11.671295,374725.274725,264126520.146520,169063956.043956,85.144966,1,2,1,2,2,40.000000
2025-11-11 12:10:22.006,,,,,,,,,,,,,,,,,,,,,,,,,,,,,,,,,,,,,,,,,,/muse/elements/blink
2025-11-11 12:10:22.405,1.221467767606539,1.108466665032099,0.3023452416769831,0.7047556794017705,1.203183840734513,1.156467134423419,0.190423672049631,0.4027871567972476,1.072722435790617,0.6060712133968776,0.3612321395580089,0.2968960876337878,1.165951673793272,0.06047784945248345,0.6098062274979095,0.4618681477775914,0.5871872160397086,-0.1254444698966974,0.3322495619875795,0.02127796365763339,799.4139194139194,803.4432234432235,900.5494505494506,808.2783882783883,850.5860805860806,-0.116089,0.126892,0.991699,1.181335,5.510406,-7.065582,391648.351648,272527619.047619,174491428.571429,83.861244,1,2,1,2,2,40.000000
2025-11-11 12:10:23.405,0.5689302630708026,1.108466665032099,0.3023452416769831,1.099773128516126,0.451172290638087,1.156467134423419,0.190423672049631,0.7099574519829956,0.590265722896979,0.6060712133968776,0.3612321395580089,0.6497810661603538,0.771487855047773,0.06047784945248345,0.6098062274979095,0.9375494818875107,0.7456492684430616,-0.1254444698966974,0.3322495619875795,0.6278385191525412,797.3992673992674,786.5201465201466,502.4542124542125,819.1575091575091,968.2417582417582,-0.176392,0.134460,0.972900,-4.471130,-4.747772,9.009552,394065.934066,268593406.593407,173834652.014652,83.861244,1,1,1,2,1,40.000000
2025-11-11 12:10:24.405,0.3729631305806528,1.108466665032099,0.3023452416769831,0.9147374502856475,0.6179992408026412,1.156467134423419,0.190423672049631,0.5014080287308219,0.603094362334528,0.6060712133968776,0.3612321395580089,0.6503686065044952,0.615242950245062,0.06047784945248345,0.6098062274979095,0.7705114842832934,0.6291230991847427,-0.1254444698966974,0.3322495619875795,0.7023003765579323,777.6556776556777,823.992673992674,587.0695970695971,809.8901098901099,513.7362637362637,-0.092102,0.169434,0.960510,9.630127,-8.740387,-108.152008,411794.871795,277698021.978022,178073479.853480,83.861244,1,1,1,2,1,40.000000
2025-11-11 12:10:24.618,,,,,,,,,,,,,,,,,,,,,,,,,,,,,,,,,,,,,,,,,,/muse/elements/blink
2025-11-11 12:10:24.956,,,,,,,,,,,,,,,,,,,,,,,,,,,,,,,,,,,,,,,,,,/muse/elements/blink
2025-11-11 12:10:24.956,,,,,,,,,,,,,,,,,,,,,,,,,,,,,,,,,,,,,,,,,,/muse/elements/jaw_clench
2025-11-11 12:10:25.170,,,,,,,,,,,,,,,,,,,,,,,,,,,,,,,,,,,,,,,,,,/muse/elements/jaw_clench
2025-11-11 12:10:25.405,0.2266883683749895,1.108466665032099,0.3023452416769831,0.4087973811243465,0.7834989894572811,1.156467134423419,0.190423672049631,0.04468049474844274,0.2152119597584545,0.6060712133968776,0.3612321395580089,0.3117740397968475,0.4998608434156313,0.06047784945248345,0.6098062274979095,0.5135582734164934,0.4568754032370819,-0.1254444698966974,0.3322495619875795,0.7017800563320107,832.4542124542124,849.7802197802198,825.6043956043957,809.4871794871796,888.8644688644689,0.001587,0.136841,1.163879,8.149719,-5.525360,-60.248108,342490.842491,263800146.520147,163720293.040293,83.861244,1,1,1,2,1,40.000000
2025-11-11 12:10:26.064,,,,,,,,,,,,,,,,,,,,,,,,,,,,,,,,,,,,,,,,,,/muse/elements/blink
2025-11-11 12:10:26.365,,,,,,,,,,,,,,,,,,,,,,,,,,,,,,,,,,,,,,,,,,/muse/elements/blink
2025-11-11 12:10:26.405,0.2882774441655823,1.108466665032099,0.3023452416769831,0.4087973811243465,0.7244944739839799,1.156467134423419,0.190423672049631,0.04468049474844274,0.212808440428664,0.6060712133968776,0.3612321395580089,0.3117740397968475,0.5169344742491531,0.06047784945248345,0.6098062274979095,0.5135582734164934,0.460286364500832,-0.1254444698966974,0.3322495619875795,0.7017800563320107,830.8424908424909,776.4468864468864,720.0366300366301,831.6483516483516,844.5421245421246,-0.207153,0.069092,0.947266,15.424652,-8.471222,-26.752014,347326.007326,247186520.146520,152343150.183150,83.861244,1,1,1,2,1,40.000000
2025-11-11 12:10:26.790,,,,,,,,,,,,,,,,,,,,,,,,,,,,,,,,,,,,,,,,,,/muse/elements/blink
2025-11-11 12:10:27.404,0.2882774441655823,1.108466665032099,0.3023452416769831,0.4087973811243465,0.7244944739839799,1.156467134423419,0.190423672049631,0.04468049474844274,0.212808440428664,0.6060712133968776,0.3612321395580089,0.3117740397968475,0.5169344742491531,0.06047784945248345,0.6098062274979095,0.5135582734164934,0.460286364500832,-0.1254444698966974,0.3322495619875795,0.7017800563320107,771.2087912087912,834.4688644688645,891.6849816849817,787.3260073260074,616.8864468864469,-0.292969,0.205750,0.952332,3.394470,-6.093597,-22.146301,368278.388278,235952014.652015,143817948.717949,83.861244,1,2,1,2,2,40.000000
2025-11-11 12:10:28.085,,,,,,,,,,,,,,,,,,,,,,,,,,,,,,,,,,,,,,,,,,/muse/elements/blink
2025-11-11 12:10:28.405,0.2882774441655823,1.108466665032099,0.3023452416769831,0.4087973811243465,0.7244944739839799,1.156467134423419,0.190423672049631,0.04468049474844274,0.212808440428664,0.6060712133968776,0.3612321395580089,0.3117740397968475,0.5169344742491531,0.06047784945248345,0.6098062274979095,0.5135582734164934,0.460286364500832,-0.1254444698966974,0.3322495619875795,0.7017800563320107,839.3040293040293,715.6043956043957,834.4688644688645,837.2893772893773,867.9120879120879,-0.227661,0.058777,0.942627,-5.517883,-0.792542,56.644287,585054.945055,248732967.032967,152197289.377289,83.861244,1,2,1,2,2,40.000000
2025-11-11 12:10:28.426,,,,,,,,,,,,,,,,,,,,,,,,,,,,,,,,,,,,,,,,,,/muse/elements/blink
2025-11-11 12:10:29.128,,,,,,,,,,,,,,,,,,,,,,,,,,,,,,,,,,,,,,,,,,/muse/elements/blink
2025-11-11 12:10:29.128,,,,,,,,,,,,,,,,,,,,,,,,,,,,,,,,,,,,,,,,,,/muse/elements/jaw_clench
2025-11-11 12:10:29.405,0.2882774441655823,1.108466665032099,0.3023452416769831,0.4087973811243465,0.7244944739839799,1.156467134423419,0.190423672049631,0.04468049474844274,0.212808440428664,0.6060712133968776,0.3612321395580089,0.3117740397968475,0.5169344742491531,0.06047784945248345,0.6098062274979095,0.5135582734164934,0.460286364500832,-0.1254444698966974,0.3322495619875795,0.7017800563320107,839.7069597069598,740.1831501831502,509.7069597069597,848.5714285714286,830.0366300366301,-0.089844,0.120239,0.782471,-16.306915,12.546082,65.915527,1487619.047619,249471941.391941,152462417.582418,83.861244,1,2,1,2,2,40.000000
2025-11-11 12:10:29.406,,,,,,,,,,,,,,,,,,,,,,,,,,,,,,,,,,,,,,,,,,/muse/elements/blink
2025-11-11 12:10:30.257,,,,,,,,,,,,,,,,,,,,,,,,,,,,,,,,,,,,,,,,,,/muse/elements/blink
2025-11-11 12:10:30.405,0.2882774441655823,1.108466665032099,0.3023452416769831,0.4087973811243465,0.7244944739839799,1.156467134423419,0.190423672049631,0.04468049474844274,0.212808440428664,0.6060712133968776,0.3612321395580089,0.3117740397968475,0.5169344742491531,0.06047784945248345,0.6098062274979095,0.5135582734164934,0.460286364500832,-0.1254444698966974,0.3322495619875795,0.7017800563320107,846.5567765567765,760.3296703296703,616.8864468864469,821.978021978022,638.2417582417582,-0.250122,0.222778,0.879700,-24.718323,-8.418884,53.489075,349743.589744,246671575.091575,150192307.692308,83.861244,1,2,1,2,2,40.000000
2025-11-11 12:10:31.238,,,,,,,,,,,,,,,,,,,,,,,,,,,,,,,,,,,,,,,,,,/muse/elements/blink
2025-11-11 12:10:31.405,0.2882774441655823,1.108466665032099,0.3023452416769831,0.4087973811243465,0.7244944739839799,1.156467134423419,0.190423672049631,0.04468049474844274,0.212808440428664,0.6060712133968776,0.3612321395580089,0.3117740397968475,0.5169344742491531,0.06047784945248345,0.6098062274979095,0.5135582734164934,0.460286364500832,-0.1254444698966974,0.3322495619875795,0.7017800563320107,839.7069597069598,770.8058608058608,911.0256410256411,851.3919413919414,774.8351648351648,-0.371521,0.063599,0.932678,-10.295563,10.856323,27.297821,354578.754579,248348571.428571,148002783.882784,87.813286,1,2,1,2,2,40.000000
2025-11-11 12:10:31.471,,,,,,,,,,,,,,,,,,,,,,,,,,,,,,,,,,,,,,,,,,/muse/elements/blink
2025-11-11 12:10:32.405,0.2882774441655823,1.108466665032099,0.3023452416769831,0.4087973811243465,0.7244944739839799,1.156467134423419,0.190423672049631,0.04468049474844274,0.212808440428664,0.6060712133968776,0.3612321395580089,0.3117740397968475,0.5169344742491531,0.06047784945248345,0.6098062274979095,0.5135582734164934,0.460286364500832,-0.1254444698966974,0.3322495619875795,0.7017800563320107,828.021978021978,835.2747252747253,762.3443223443223,829.6336996336996,759.92673992674,-0.306335,0.134949,0.997131,-7.596436,4.209442,30.610046,384395.604396,275527838.827839,169309743.589744,91.851067,1,2,1,2,2,40.000000
2025-11-11 12:10:33.414,0.2882774441655823,1.108466665032099,0.3023452416769831,0.4087973811243465,0.7244944739839799,1.156467134423419,0.190423672049631,0.04468049474844274,0.212808440428664,0.6060712133968776,0.3612321395580089,0.3117740397968475,0.5169344742491531,0.06047784945248345,0.6098062274979095,0.5135582734164934,0.460286364500832,-0.1254444698966974,0.3322495619875795,0.7017800563320107,813.919413919414,863.8827838827839,665.6410256410256,822.7838827838829,624.5421245421246,-0.212219,0.180786,1.035339,1.502838,-14.362946,4.388885,381978.021978,278320952.380952,171880439.560440,91.851067,1,2,1,2,2,40.000000
2025-11-11 12:10:34.405,0.8064190446471124,1.108466665032099,0.3023452416769831,0.4087973811243465,0.1662361649881824,1.156467134423419,0.190423672049631,0.04468049474844274,0.3276147581632954,0.6060712133968776,0.3612321395580089,0.3117740397968475,0.5697151533830619,0.06047784945248345,0.6098062274979095,0.5135582734164934,0.4640461090968869,-0.1254444698966974,0.3322495619875795,0.7017800563320107,816.7399267399268,861.0622710622711,647.5091575091575,820.3663003663004,1219.67032967033,-0.228455,0.044006,0.967896,5.173950,-0.994415,0.343933,454505.494505,278042124.542125,171772454.212454,91.851067,1,1,1,2,1,40.000000
2025-11-11 12:10:35.405,0.7323486290326191,1.108466665032099,0.3023452416769831,0.8245039351829896,0.3089957774754969,1.156467134423419,0.190423672049631,0.5778087216834742,0.3747181715952649,0.6060712133968776,0.3612321395580089,0.48271213790123,0.598550851164917,0.06047784945248345,0.6098062274979095,0.5754537112476794,0.3750013678109904,-0.1254444698966974,0.3322495619875795,0.2469831518417334,801.4285714285714,754.2857142857143,810.2930402930403,818.3516483516484,706.7399267399268,-0.251587,0.185669,0.929138,0.097198,1.958923,-9.241333,374725.274725,281229304.029304,173974871.794872,91.851067,1,1,1,2,1,40.000000
2025-11-11 12:10:36.405,0.6803052455970368,1.108466665032099,0.3023452416769831,0.6831170552139508,0.2960725898843458,1.156467134423419,0.190423672049631,0.6884067884093065,0.5226414750778273,0.6060712133968776,0.3612321395580089,0.6020624269293697,0.6134150016898409,0.06047784945248345,0.6098062274979095,0.5823198509433741,0.4097385269537038,-0.1254444698966974,0.3322495619875795,0.2760548778230716,764.3589743589744,799.0109890109891,911.0256410256411,774.8351648351648,688.2051282051282,-0.216614,0.015381,0.959229,10.160980,-3.304749,-26.026764,369890.109890,281505714.285714,175348864.468864,91.851067,1,1,1,2,1,40.000000
2025-11-11 12:10:36.619,,,,,,,,,,,,,,,,,,,,,,,,,,,,,,,,,,,,,,,,,,/muse/elements/blink
2025-11-11 12:10:37.405,0.5455432457131171,1.08801297867238,0.3023452416769831,0.7920309520521046,0.5953698416397093,0.2149623068817663,0.190423672049631,0.6462034760896757,0.5226414750778273,0.3273371414204552,0.3612321395580089,0.9693487621430366,0.7028824935384439,0.3402002988142285,0.6098062274979095,0.7571592796856349,0.3816733621978091,-0.07791296810161276,0.3322495619875795,0.4541774992936982,788.5347985347986,784.5054945054945,766.7765567765568,794.1758241758242,691.025641025641,-0.259155,0.102051,0.904663,0.388794,-16.912537,-42.490692,394871.794872,280096263.736264,176507692.307692,89.152504,1,1,1,2,1,40.000000
2025-11-11 12:10:37.749,,,,,,,,,,,,,,,,,,,,,,,,,,,,,,,,,,,,,,,,,,/muse/elements/blink
2025-11-11 12:10:38.155,,,,,,,,,,,,,,,,,,,,,,,,,,,,,,,,,,,,,,,,,,/muse/elements/blink
2025-11-11 12:10:38.405,0.5455432457131171,0.8905366057959277,0.3023452416769831,0.9997936929195458,0.5953698416397093,0.6984364589638452,0.190423672049631,0.7855440097498544,0.5226414750778273,0.818367756577438,0.3612321395580089,0.9693487621430366,0.7028824935384439,0.3316199117795307,0.6098062274979095,0.9121650240260837,0.3816733621978091,0.04171371080080171,0.3322495619875795,0.5891877830146125,778.4615384615385,760.3296703296703,840.9157509157509,806.6666666666667,620.5128205128206,-0.167725,0.244995,1.010010,19.948120,-24.194946,-60.464935,351355.311355,265174139.194139,165789743.589744,81.029694,1,1,1,2,1,40.000000
2025-11-11 12:10:39.151,,,,,,,,,,,,,,,,,,,,,,,,,,,,,,,,,,,,,,,,,,/muse/elements/blink
2025-11-11 12:10:39.405,0.5455432457131171,0.8738848874494819,0.3023452416769831,0.9997936929195458,0.5953698416397093,1.059063978789315,0.190423672049631,0.7855440097498544,0.5226414750778273,0.8167929253364983,0.3612321395580089,0.9693487621430366,0.7028824935384439,0.406420791017545,0.6098062274979095,0.9121650240260837,0.3816733621978091,0.1926209670471694,0.3322495619875795,0.5891877830146125,690.6227106227107,850.5860805860806,919.4871794871796,669.6703296703297,501.2454212454213,-0.166260,0.112183,0.961121,17.129364,1.099091,-42.415924,337655.677656,256890695.970696,158827912.087912,78.860649,1,2,1,2,2,40.000000
2025-11-11 12:10:39.576,,,,,,,,,,,,,,,,,,,,,,,,,,,,,,,,,,,,,,,,,,/muse/elements/blink
2025-11-11 12:10:40.405,0.5455432457131171,0.8738848874494819,0.3023452416769831,0.9997936929195458,0.5953698416397093,1.059063978789315,0.190423672049631,0.7855440097498544,0.5226414750778273,0.8167929253364983,0.3612321395580089,0.9693487621430366,0.7028824935384439,0.406420791017545,0.6098062274979095,0.9121650240260837,0.3816733621978091,0.1926209670471694,0.3322495619875795,0.5891877830146125,795.3846153846154,821.1721611721612,791.7582417582418,805.8608058608058,792.967032967033,-0.224487,0.206055,0.999023,4.949646,3.753357,-23.596802,349743.589744,258834432.234432,157876996.336996,75.736977,1,2,1,2,2,40.000000
2025-11-11 12:10:40.809,,,,,,,,,,,,,,,,,,,,,,,,,,,,,,,,,,,,,,,,,,/muse/elements/blink
2025-11-11 12:10:41.406,0.5455432457131171,0.8738848874494819,0.3023452416769831,0.9997936929195458,0.5953698416397093,1.059063978789315,0.190423672049631,0.7855440097498544,0.5226414750778273,0.8167929253364983,0.3612321395580089,0.9693487621430366,0.7028824935384439,0.406420791017545,0.6098062274979095,0.9121650240260837,0.3816733621978091,0.1926209670471694,0.3322495619875795,0.5891877830146125,798.2051282051282,682.967032967033,449.6703296703297,809.0842490842491,1094.358974358974,-0.219177,0.171204,0.950256,6.766510,-2.721558,-20.553741,369084.249084,257293626.373626,156877728.937729,75.038895,1,2,1,2,2,40.000000
2025-11-11 12:10:42.198,,,,,,,,,,,,,,,,,,,,,,,,,,,,,,,,,,,,,,,,,,/muse/elements/blink
2025-11-11 12:10:42.405,0.5455432457131171,0.8738848874494819,0.3023452416769831,0.9997936929195458,0.5953698416397093,1.059063978789315,0.190423672049631,0.7855440097498544,0.5226414750778273,0.8167929253364983,0.3612321395580089,0.9693487621430366,0.7028824935384439,0.406420791017545,0.6098062274979095,0.9121650240260837,0.3816733621978091,0.1926209670471694,0.3322495619875795,0.5891877830146125,810.2930402930403,782.893772893773,668.4615384615385,780.8791208791209,548.7912087912088,-0.231079,0.054504,0.994385,-12.762909,-0.770111,34.550323,458534.798535,264797802.197802,160641098.901099,75.041451,1,2,1,2,2,40.000000
2025-11-11 12:10:43.409,0.5455432457131171,0.8738848874494819,0.3023452416769831,0.9997936929195458,0.5953698416397093,1.059063978789315,0.190423672049631,0.7855440097498544,0.5226414750778273,0.8167929253364983,0.3612321395580089,0.9693487621430366,0.7028824935384439,0.406420791017545,0.6098062274979095,0.9121650240260837,0.3816733621978091,0.1926209670471694,0.3322495619875795,0.5891877830146125,555.6410256410256,807.0695970695971,728.4981684981685,653.1501831501831,832.4542124542124,-0.272827,0.191833,0.900146,-13.383484,3.850555,32.606354,1161245.421245,266541684.981685,161504981.684982,75.041451,1,2,1,2,2,40.000000
2025-11-11 12:10:43.516,,,,,,,,,,,,,,,,,,,,,,,,,,,,,,,,,,,,,,,,,,/muse/elements/blink
2025-11-11 12:10:44.348,,,,,,,,,,,,,,,,,,,,,,,,,,,,,,,,,,,,,,,,,,/muse/elements/blink
2025-11-11 12:10:44.405,0.5455432457131171,0.8738848874494819,0.3023452416769831,0.9997936929195458,0.5953698416397093,1.059063978789315,0.190423672049631,0.7855440097498544,0.5226414750778273,0.8167929253364983,0.3612321395580089,0.9693487621430366,0.7028824935384439,0.406420791017545,0.6098062274979095,0.9121650240260837,0.3816733621978091,0.1926209670471694,0.3322495619875795,0.5891877830146125,867.9120879120879,943.6630036630037,857.032967032967,892.0879120879121,706.3369963369963,-0.272705,0.118530,0.984314,0.149536,9.159088,26.744537,3992234.432234,268286373.626374,160613699.633700,75.041451,1,2,1,2,2,40.000000
2025-11-11 12:10:44.732,,,,,,,,,,,,,,,,,,,,,,,,,,,,,,,,,,,,,,,,,,/muse/elements/blink
2025-11-11 12:10:45.263,,,,,,,,,,,,,,,,,,,,,,,,,,,,,,,,,,,,,,,,,,/muse/elements/blink
2025-11-11 12:10:45.405,0.5455432457131171,0.8738848874494819,0.3023452416769831,0.9997936929195458,0.5953698416397093,1.059063978789315,0.190423672049631,0.7855440097498544,0.5226414750778273,0.8167929253364983,0.3612321395580089,0.9693487621430366,0.7028824935384439,0.406420791017545,0.6098062274979095,0.9121650240260837,0.3816733621978091,0.1926209670471694,0.3322495619875795,0.5891877830146125,848.974358974359,798.2051282051282,900.952380952381,823.1868131868132,616.080586080586,-0.328796,0.153992,0.801941,-31.925964,20.979919,113.834381,694652.014652,240916117.216117,148571721.611722,75.041451,1,2,1,2,2,40.000000
2025-11-11 12:10:46.405,0.5455432457131171,0.8738848874494819,0.3023452416769831,0.9997936929195458,0.5953698416397093,1.059063978789315,0.190423672049631,0.7855440097498544,0.5226414750778273,0.8167929253364983,0.3612321395580089,0.9693487621430366,0.7028824935384439,0.406420791017545,0.6098062274979095,0.9121650240260837,0.3816733621978091,0.1926209670471694,0.3322495619875795,0.5891877830146125,805.8608058608058,776.8498168498169,660,801.025641025641,732.9304029304029,-0.292664,0.204224,0.908569,-14.340515,6.190796,28.606262,623736.263736,259729743.589744,169902857.142857,73.915916,1,2,1,2,2,40.000000
2025-11-11 12:10:47.405,0.5455432457131171,0.8738848874494819,0.3023452416769831,0.9997936929195458,0.5953698416397093,1.059063978789315,0.190423672049631,0.7855440097498544,0.5226414750778273,0.8167929253364983,0.3612321395580089,0.9693487621430366,0.7028824935384439,0.406420791017545,0.6098062274979095,0.9121650240260837,0.3816733621978091,0.1926209670471694,0.3322495619875795,0.5891877830146125,820.3663003663004,803.040293040293,730.1098901098901,801.025641025641,816.3369963369963,-0.359680,0.030212,0.969604,1.629944,5.256195,6.856232,455311.355311,257615164.835165,168224249.084249,69.648338,1,2,1,2,2,40.000000
2025-11-11 12:10:48.289,,,,,,,,,,,,,,,,,,,,,,,,,,,,,,,,,,,,,,,,,,/muse/elements/blink
2025-11-11 12:10:48.409,0.2054686564191213,0.8738848874494819,0.3023452416769831,0.7417272220607704,0.4550356991683523,1.059063978789315,0.190423672049631,0.4924797572082958,0.4015075254902095,0.8167929253364983,0.3612321395580089,0.7876298787025293,0.7631855140704198,0.406420791017545,0.6098062274979095,0.7854107313813584,0.6737251290340946,0.1926209670471694,0.3322495619875795,0.7238592160591314,864.6886446886447,801.8315018315019,617.2893772893773,795.7875457875458,726.0805860805862,-0.164307,0.090149,0.856018,-9.996490,-16.306915,23.656616,379560.439560,267928571.428571,169218681.318681,69.648338,1,1,1,2,1,40.000000
2025-11-11 12:10:49.412,0.2054686564191213,0.8738848874494819,0.3023452416769831,0.9246049523283821,0.4550356991683523,1.059063978789315,0.190423672049631,0.737327380956268,0.4015075254902095,0.8167929253364983,0.3612321395580089,0.7467328451174695,0.7631855140704198,0.406420791017545,0.6098062274979095,0.6544183044989274,0.6737251290340946,0.1926209670471694,0.3322495619875795,0.6734283549555985,798.6080586080586,660.8058608058608,367.0695970695971,774.0293040293041,782.893772893773,-0.184082,0.219238,0.900818,0.142059,-15.820923,11.095581,371501.831502,254086300.366300,156911575.091575,69.648338,1,1,1,2,1,40.000000
2025-11-11 12:10:49.738,,,,,,,,,,,,,,,,,,,,,,,,,,,,,,,,,,,,,,,,,,/muse/elements/blink
2025-11-11 12:10:49.843,,,,,,,,,,,,,,,,,,,,,,,,,,,,,,,,,,,,,,,,,,/muse/elements/jaw_clench
2025-11-11 12:10:50.405,0.2054686564191213,0.8738848874494819,0.3023452416769831,0.9246049523283821,0.4550356991683523,1.059063978789315,0.190423672049631,0.737327380956268,0.4015075254902095,0.8167929253364983,0.3612321395580089,0.7467328451174695,0.7631855140704198,0.406420791017545,0.6098062274979095,0.6544183044989274,0.6737251290340946,0.1926209670471694,0.3322495619875795,0.6734283549555985,801.8315018315019,732.1245421245421,790.5494505494506,799.4139194139194,771.2087912087912,-0.075684,0.062134,0.953796,0.164490,10.818939,-37.040100,1014578.754579,274716336.996337,167348278.388278,69.648338,1,1,1,4,1,40.000000
2025-11-11 12:10:50.735,,,,,,,,,,,,,,,,,,,,,,,,,,,,,,,,,,,,,,,,,,/muse/elements/blink
2025-11-11 12:10:51.405,0.2054686564191213,0.8738848874494819,0.3023452416769831,0.9246049523283821,0.4550356991683523,1.059063978789315,0.190423672049631,0.737327380956268,0.4015075254902095,0.8167929253364983,0.3612321395580089,0.7467328451174695,0.7631855140704198,0.406420791017545,0.6098062274979095,0.6544183044989274,0.6737251290340946,0.1926209670471694,0.3322495619875795,0.6734283549555985,770.4029304029305,737.7655677655678,873.956043956044,774.4322344322345,674.1025641025641,-0.053528,0.051636,1.002380,-1.173859,17.189178,-31.911011,479487.179487,272612234.432234,169304102.564103,69.648338,1,2,1,2,2,40.000000
2025-11-11 12:10:51.438,,,,,,,,,,,,,,,,,,,,,,,,,,,,,,,,,,,,,,,,,,/muse/elements/blink
2025-11-11 12:10:51.865,,,,,,,,,,,,,,,,,,,,,,,,,,,,,,,,,,,,,,,,,,/muse/elements/blink
2025-11-11 12:10:52.405,0.2054686564191213,0.8738848874494819,0.3023452416769831,0.9246049523283821,0.4550356991683523,1.059063978789315,0.190423672049631,0.737327380956268,0.4015075254902095,0.8167929253364983,0.3612321395580089,0.7467328451174695,0.7631855140704198,0.406420791017545,0.6098062274979095,0.6544183044989274,0.6737251290340946,0.1926209670471694,0.3322495619875795,0.6734283549555985,749.4505494505495,858.2417582417582,745.8241758241759,774.4322344322345,819.1575091575091,-0.167542,0.254395,0.891174,5.450592,1.121521,-50.176849,367472.527473,259717655.677656,159167985.347985,69.648338,1,2,1,2,2,40.000000
2025-11-11 12:10:53.405,0.2054686564191213,0.8738848874494819,0.3023452416769831,0.9246049523283821,0.4550356991683523,1.059063978789315,0.190423672049631,0.737327380956268,0.4015075254902095,0.8167929253364983,0.3612321395580089,0.7467328451174695,0.7631855140704198,0.406420791017545,0.6098062274979095,0.6544183044989274,0.6737251290340946,0.1926209670471694,0.3322495619875795,0.6734283549555985,768.3882783882784,700.2930402930403,898.5347985347986,794.981684981685,694.6520146520147,-0.226562,0.111267,1.001892,7.237549,-5.570221,-24.037933,348131.868132,249221318.681319,154314285.714286,73.215454,1,2,1,2,2,40.000000
2025-11-11 12:10:54.097,,,,,,,,,,,,,,,,,,,,,,,,,,,,,,,,,,,,,,,,,,/muse/elements/blink
2025-11-11 12:10:54.411,0.2054686564191213,0.8738848874494819,0.3023452416769831,1.031319452264893,0.4550356991683523,1.059063978789315,0.190423672049631,0.8430421777504788,0.4015075254902095,0.8167929253364983,0.3612321395580089,0.8178668217425696,0.7631855140704198,0.406420791017545,0.6098062274979095,0.9924509340276486,0.6737251290340946,0.1926209670471694,0.3322495619875795,0.9834666255022046,751.0622710622711,738.5714285714286,614.0659340659341,754.6886446886447,743.8095238095239,-0.199890,0.062012,0.911133,-1.188812,-7.259979,-25.809937,336849.816850,248749890.109890,151810476.190476,73.215454,1,1,1,2,1,40.000000
2025-11-11 12:10:54.803,,,,,,,,,,,,,,,,,,,,,,,,,,,,,,,,,,,,,,,,,,/muse/elements/blink
2025-11-11 12:10:54.994,,,,,,,,,,,,,,,,,,,,,,,,,,,,,,,,,,,,,,,,,,/muse/elements/jaw_clench
2025-11-11 12:10:55.101,,,,,,,,,,,,,,,,,,,,,,,,,,,,,,,,,,,,,,,,,,/muse/elements/blink
2025-11-11 12:10:55.338,,,,,,,,,,,,,,,,,,,,,,,,,,,,,,,,,,,,,,,,,,/muse/elements/blink
2025-11-11 12:10:55.413,0.2054686564191213,0.8738848874494819,0.3023452416769831,1.020894061292391,0.4550356991683523,1.059063978789315,0.190423672049631,0.7742712143958731,0.4015075254902095,0.8167929253364983,0.3612321395580089,0.7817296194313675,0.7631855140704198,0.406420791017545,0.6098062274979095,0.9370160322727479,0.6737251290340946,0.1926209670471694,0.3322495619875795,0.9291878904985199,737.7655677655678,1060.512820512821,768.7912087912088,754.2857142857143,848.5714285714286,-0.295105,0.246521,0.913635,5.316010,-15.192871,-35.477448,349743.589744,260799120.879121,153702637.362637,73.215454,1,1,1,2,1,40.000000
2025-11-11 12:10:55.509,,,,,,,,,,,,,,,,,,,,,,,,,,,,,,,,,,,,,,,,,,/muse/elements/jaw_clench
2025-11-11 12:10:55.700,,,,,,,,,,,,,,,,,,,,,,,,,,,,,,,,,,,,,,,,,,/muse/elements/blink
2025-11-11 12:10:56.414,0.2054686564191213,0.8738848874494819,0.3023452416769831,1.020894061292391,0.4550356991683523,1.059063978789315,0.190423672049631,0.7742712143958731,0.4015075254902095,0.8167929253364983,0.3612321395580089,0.7817296194313675,0.7631855140704198,0.406420791017545,0.6098062274979095,0.9370160322727479,0.6737251290340946,0.1926209670471694,0.3322495619875795,0.9291878904985199,722.0512820512821,693.4432234432235,850.5860805860806,748.2417582417582,724.4688644688645,-0.348511,0.026611,0.983826,8.246918,-1.614990,-23.439789,356190.476190,240617948.717949,143397289.377289,73.215454,1,2,1,2,2,40.000000
2025-11-11 12:10:56.446,,,,,,,,,,,,,,,,,,,,,,,,,,,,,,,,,,,,,,,,,,/muse/elements/blink
2025-11-11 12:10:57.171,,,,,,,,,,,,,,,,,,,,,,,,,,,,,,,,,,,,,,,,,,/muse/elements/jaw_clench
2025-11-11 12:10:57.404,0.2054686564191213,0.8738848874494819,0.3023452416769831,1.020894061292391,0.4550356991683523,1.059063978789315,0.190423672049631,0.7742712143958731,0.4015075254902095,0.8167929253364983,0.3612321395580089,0.7817296194313675,0.7631855140704198,0.406420791017545,0.6098062274979095,0.9370160322727479,0.6737251290340946,0.1926209670471694,0.3322495619875795,0.9291878904985199,720.0366300366301,723.2600732600732,874.3589743589744,726.4835164835165,643.0769230769231,-0.386475,0.123169,0.933228,-11.402130,13.787231,23.043518,456117.216117,247104322.344322,147968131.868132,74.584793,1,2,1,2,2,40.000000
2025-11-11 12:10:57.663,,,,,,,,,,,,,,,,,,,,,,,,,,,,,,,,,,,,,,,,,,/muse/elements/blink
2025-11-11 12:10:57.961,,,,,,,,,,,,,,,,,,,,,,,,,,,,,,,,,,,,,,,,,,/muse/elements/jaw_clench
2025-11-11 12:10:58.280,,,,,,,,,,,,,,,,,,,,,,,,,,,,,,,,,,,,,,,,,,/muse/elements/jaw_clench
2025-11-11 12:10:58.404,0.2054686564191213,0.8738848874494819,0.3023452416769831,1.020894061292391,0.4550356991683523,1.059063978789315,0.190423672049631,0.7742712143958731,0.4015075254902095,0.8167929253364983,0.3612321395580089,0.7817296194313675,0.7631855140704198,0.406420791017545,0.6098062274979095,0.9370160322727479,0.6737251290340946,0.1926209670471694,0.3322495619875795,0.9291878904985199,834.8717948717949,844.9450549450549,573.3699633699634,790.5494505494506,808.6813186813187,-0.241516,0.186462,1.046997,-3.970184,-9.144135,28.673553,1375604.395604,259504908.424908,159595897.435897,74.584793,1,2,1,2,2,40.000000
2025-11-11 12:10:58.471,,,,,,,,,,,,,,,,,,,,,,,,,,,,,,,,,,,,,,,,,,/muse/elements/jaw_clench
2025-11-11 12:10:58.663,,,,,,,,,,,,,,,,,,,,,,,,,,,,,,,,,,,,,,,,,,/muse/elements/jaw_clench
2025-11-11 12:10:58.897,,,,,,,,,,,,,,,,,,,,,,,,,,,,,,,,,,,,,,,,,,/muse/elements/jaw_clench
2025-11-11 12:10:59.406,0.2054686564191213,0.8738848874494819,0.3023452416769831,1.020894061292391,0.4550356991683523,1.059063978789315,0.190423672049631,0.7742712143958731,0.4015075254902095,0.8167929253364983,0.3612321395580089,0.7817296194313675,0.7631855140704198,0.406420791017545,0.6098062274979095,0.9370160322727479,0.6737251290340946,0.1926209670471694,0.3322495619875795,0.9291878904985199,771.6117216117216,787.7289377289378,845.3479853479854,787.3260073260074,639.8534798534798,-0.278625,0.077271,0.908630,-7.768402,2.467346,42.333679,3088864.468864,256180732.600733,157976117.216117,74.584793,1,2,2,2,2,40.000000
2025-11-11 12:10:59.597,,,,,,,,,,,,,,,,,,,,,,,,,,,,,,,,,,,,,,,,,,/muse/elements/jaw_clench
2025-11-11 12:10:59.766,,,,,,,,,,,,,,,,,,,,,,,,,,,,,,,,,,,,,,,,,,/muse/elements/jaw_clench
2025-11-11 12:11:00.405,0.2054686564191213,0.8738848874494819,0.3023452416769831,1.020894061292391,0.4550356991683523,1.059063978789315,0.190423672049631,0.7742712143958731,0.4015075254902095,0.8167929253364983,0.3612321395580089,0.7817296194313675,0.7631855140704198,0.406420791017545,0.6098062274979095,0.9370160322727479,0.6737251290340946,0.1926209670471694,0.3322495619875795,0.9291878904985199,808.2783882783883,833.6630036630037,776.0439560439561,788.5347985347986,683.3699633699634,-0.309143,0.274231,0.919861,-30.565186,12.785339,74.117584,364249.084249,259089084.249084,160430769.230769,74.584793,1,2,2,2,2,40.000000
2025-11-11 12:11:00.488,,,,,,,,,,,,,,,,,,,,,,,,,,,,,,,,,,,,,,,,,,/muse/elements/jaw_clench
2025-11-11 12:11:01.409,0.2054686564191213,0.8738848874494819,0.3023452416769831,1.020894061292391,0.4550356991683523,1.059063978789315,0.190423672049631,0.7742712143958731,0.4015075254902095,0.8167929253364983,0.3612321395580089,0.7817296194313675,0.7631855140704198,0.406420791017545,0.6098062274979095,0.9370160322727479,0.6737251290340946,0.1926209670471694,0.3322495619875795,0.9291878904985199,740.5860805860806,1000.07326007326,628.1684981684982,763.5531135531136,789.7435897435897,-0.268799,0.178894,0.935852,-5.054321,7.910461,38.266296,387619.047619,269226007.326007,169496703.296703,74.584793,1,2,2,2,2,40.000000
