TimeStamp,Delta_TP9,Delta_AF7,Delta_AF8,Delta_TP10,Theta_TP9,Theta_AF7,Theta_AF8,Theta_TP10,Alpha_TP9,Alpha_AF7,Alpha_AF8,Alpha_TP10,Beta_TP9,Beta_AF7,Beta_AF8,Beta_TP10,Gamma_TP9,Gamma_AF7,Gamma_AF8,Gamma_TP10,RAW_TP9,RAW_AF7,RAW_AF8,RAW_TP10,AUX_RIGHT,Accelerometer_X,Accelerometer_Y,Accelerometer_Z,Gyro_X,Gyro_Y,Gyro_Z,PPG_Ambient,PPG_IR,PPG_Red,Heart_Rate,HeadBandOn,HSI_TP9,HSI_AF7,HSI_AF8,HSI_TP10,Battery,Elements
2025-11-11 12:45:32.133,,,,,,,,,,,,,,,,,,,,,,,,,,,,,,,,,,,,,,,,,,/muse/event/connected Muse-135C
2025-11-11 12:45:32.205,,,,,,,,,,,,,,,,,,,,,,,,,,,,,,,,,,,,,,,,,,/muse/elements/blink
2025-11-11 12:45:32.230,,,,,,,,,,,,,,,,,,,,,,,,,,,,,,,,,,,,,,,,,,/muse/elements/blink
2025-11-11 12:45:32.233,,,,,,,,,,,,,,,,,,,,,,,,,,,,,,,,,,,,,,,,,,/muse/elements/blink
2025-11-11 12:45:33.118,,,,,,,,,,,,,,,,,,,,,,,,,,,,,,,,,,,,,,,,,,/muse/elements/blink
2025-11-11 12:45:33.134,0.2638427243089964,0.7597548189312856,0.9971608807279231,0,0.1991735688692299,0.2223899839001177,0.6749434452781137,0,0.4224860838076124,0.1238803997899663,0.5434495719327513,0,0.5346565895014206,0.1472203932936467,0.05204667581442186,0,0.2595106964355283,-0.1695269614506688,-0.183630482390165,0,843.7362637362637,798.6080586080586,792.967032967033,909.8168498168499,921.0989010989011,0.109070,-0.073975,0.951050,3.506622,0.538330,35.791473,323956.043956,118426080.586081,60204249.084249,93.951752,1,2,1,1,2,40.000000
2025-11-11 12:45:34.134,0.2638427243089964,0.9206951123434836,1.270957669094631,0,0.1991735688692299,0.4945371846912737,0.7149952987495815,0,0.4224860838076124,0.2716369583749866,0.4796306599014521,0,0.5346565895014206,0.1108930914809153,-0.05871365881615309,0,0.2595106964355283,-0.07781415500390809,-0.2718928467505345,0,806.2637362637363,797.3992673992674,793.7728937728938,888.8644688644689,636.6300366300367,0.148254,0.061035,0.932373,12.628326,10.482483,38.670044,302197.802198,118392234.432234,60053553.113553,111.713295,1,2,1,1,2,40.000000
2025-11-11 12:45:35.136,0.2638427243089964,0.9095912154850996,1.495753912738274,0,0.1991735688692299,0.5960125623493208,1.032822950106172,0,0.4224860838076124,0.3832557517869616,0.742854783954924,0,0.5346565895014206,0.1005915940785032,-0.07638562873775141,0,0.2595106964355283,-0.006566024846405174,-0.2271123513052206,0,815.5311355311355,799.4139194139194,793.3699633699634,986.3736263736264,1018.205128205128,0.299561,-0.059753,0.922974,6.751556,0.343933,21.959381,302197.802198,118182710.622711,59740073.260073,114.164497,1,2,1,1,2,40.000000
2025-11-11 12:45:35.572,,,,,,,,,,,,,,,,,,,,,,,,,,,,,,,,,,,,,,,,,,/muse/elements/blink
2025-11-11 12:45:36.039,,,,,,,,,,,,,,,,,,,,,,,,,,,,,,,,,,,,,,,,,,/muse/elements/blink
2025-11-11 12:45:36.144,0.2638427243089964,0.8077438937031141,1.43935678456128,0,0.1991735688692299,0.4166714569077296,1.048651729997736,0,0.4224860838076124,0.4801364891189445,0.6594055296980393,0,0.5346565895014206,0.07687832706384796,0.06369737456329745,0,0.2595106964355283,0.1499587325866946,-0.1948063256148399,0,841.7216117216118,805.0549450549451,772.4175824175825,905.3846153846154,1006.923076923077,0.086487,-0.033386,0.910828,-9.069366,5.517883,41.929932,303003.663004,118290695.970696,59711868.131868,114.164497,1,2,1,1,2,40.000000
2025-11-11 12:45:36.446,,,,,,,,,,,,,,,,,,,,,,,,,,,,,,,,,,,,,,,,,,/muse/elements/blink
2025-11-11 12:45:37.134,0.2638427243089964,1.087060451411062,1.403702812193035,0,0.1991735688692299,0.828571224384017,1.040722106716925,0,0.4224860838076124,0.8550530879148773,0.5654935975386064,0,0.5346565895014206,0.07164715997266127,0.05626559053139031,0,0.2595106964355283,0.1883934481875751,-0.1693543088442077,0,806.2637362637363,807.4725274725275,803.4432234432235,898.5347985347986,583.4432234432235,0.159546,0.084900,0.949646,11.245117,1.271057,48.591766,306227.106227,118243150.183150,59698974.358974,114.164497,1,2,1,1,2,40.000000
2025-11-11 12:45:37.572,,,,,,,,,,,,,,,,,,,,,,,,,,,,,,,,,,,,,,,,,,/muse/elements/blink
2025-11-11 12:45:38.134,0.2638427243089964,1.161088263512678,1.403702812193035,0,0.1991735688692299,0.4677205836002558,1.040722106716925,0,0.4224860838076124,0.01274782212448451,0.5654935975386064,0,0.5346565895014206,0.03480099288168637,0.05626559053139031,0,0.2595106964355283,0.08160563076449945,-0.1693543088442077,0,832.8571428571429,795.7875457875458,783.6996336996338,837.6923076923077,1037.948717948718,-0.014343,-0.122375,0.969727,-3.364563,-0.403748,14.415283,306227.106227,117990915.750916,59678021.978022,114.318527,1,2,1,1,2,40.000000
2025-11-11 12:45:38.695,,,,,,,,,,,,,,,,,,,,,,,,,,,,,,,,,,,,,,,,,,/muse/elements/blink
2025-11-11 12:45:39.134,0.2638427243089964,1.06726275629547,1.403702812193035,0,0.1991735688692299,0.4323891370242769,1.040722106716925,0,0.4224860838076124,0.2683527752541027,0.5654935975386064,0,0.5346565895014206,0.02516002061917029,0.05626559053139031,0,0.2595106964355283,-0.02923537575049038,-0.1693543088442077,0,828.8278388278388,803.4432234432235,796.1904761904763,1622.197802197802,862.6739926739926,0.035583,0.016113,1.067261,-8.231964,7.476807,-6.467438,311062.271062,118321318.681319,60018901.098901,110.350594,1,2,1,1,2,40.000000
2025-11-11 12:45:39.501,,,,,,,,,,,,,,,,,,,,,,,,,,,,,,,,,,,,,,,,,,/muse/elements/blink
2025-11-11 12:45:40.134,0.2638427243089964,1.007823772993717,1.403702812193035,0,0.1991735688692299,0.6006671535826272,1.040722106716925,0,0.4224860838076124,0.3058220597955605,0.5654935975386064,0,0.5346565895014206,0.1165707679739073,0.05626559053139031,0,0.2595106964355283,-0.1270794264070293,-0.1693543088442077,0,786.9230769230769,817.5457875457876,758.7179487179487,844.5421245421246,552.014652014652,0.126465,0.095520,0.998596,-7.820740,-20.090179,-46.490784,316703.296703,118540512.820513,60246959.706960,102.886772,1,2,1,1,2,40.000000
2025-11-11 12:45:41.050,,,,,,,,,,,,,,,,,,,,,,,,,,,,,,,,,,,,,,,,,,/muse/elements/blink
2025-11-11 12:45:41.134,0.2638427243089964,1.053342339657608,1.403702812193035,0,0.1991735688692299,0.8556944645635562,1.040722106716925,0,0.4224860838076124,0.5735465918698904,0.5654935975386064,0,0.5346565895014206,0.06265578299487366,0.05626559053139031,0,0.2595106964355283,-0.3093183188777262,-0.1693543088442077,0,832.8571428571429,783.6996336996338,817.948717948718,950.1098901098901,832.8571428571429,-0.152222,0.002686,0.952759,13.899384,23.409882,-33.137207,361025.641026,118391428.571429,60076117.216117,102.886772,1,2,1,1,2,40.000000
2025-11-11 12:45:42.027,,,,,,,,,,,,,,,,,,,,,,,,,,,,,,,,,,,,,,,,,,/muse/elements/blink
2025-11-11 12:45:42.144,0.2638427243089964,1.257163817417137,1.403702812193035,0,0.1991735688692299,1.060076283376582,1.040722106716925,0,0.4224860838076124,0.5693537723418346,0.5654935975386064,0,0.5346565895014206,0.1113655190618966,0.05626559053139031,0,0.2595106964355283,-0.3574328302292328,-0.1693543088442077,0,828.8278388278388,783.2967032967033,807.0695970695971,1513.003663003663,1011.355311355311,-0.377502,0.077393,1.085144,0.777588,15.761108,-11.342316,315897.435897,118704908.424908,60090622.710623,102.886772,1,2,1,1,2,40.000000
2025-11-11 12:45:42.643,,,,,,,,,,,,,,,,,,,,,,,,,,,,,,,,,,,,,,,,,,/muse/elements/blink
2025-11-11 12:45:43.089,,,,,,,,,,,,,,,,,,,,,,,,,,,,,,,,,,,,,,,,,,/muse/elements/blink
2025-11-11 12:45:43.133,0.2638427243089964,1.257163817417137,1.403702812193035,0,0.1991735688692299,1.060076283376582,1.040722106716925,0,0.4224860838076124,0.5693537723418346,0.5654935975386064,0,0.5346565895014206,0.1113655190618966,0.05626559053139031,0,0.2595106964355283,-0.3574328302292328,-0.1693543088442077,0,772.4175824175825,791.3553113553114,820.7692307692308,1398.974358974359,525.018315018315,-0.125671,0.113953,1.024231,0.478516,-33.712921,-55.814362,302197.802198,119111868.131868,60282417.582418,96.849411,1,2,1,1,4,40.000000
2025-11-11 12:45:43.874,,,,,,,,,,,,,,,,,,,,,,,,,,,,,,,,,,,,,,,,,,/muse/elements/blink
2025-11-11 12:45:44.141,0.2638427243089964,1.281749121412997,1.403702812193035,0,0.1991735688692299,0.7112967089160618,1.040722106716925,0,0.4224860838076124,0.5255496879075705,0.5654935975386064,0,0.5346565895014206,0.07861317138081164,0.05626559053139031,0,0.2595106964355283,-0.1657841948509819,-0.1693543088442077,0,848.1684981684982,795.7875457875458,764.3589743589744,1044.798534798535,987.5824175824176,0.051697,-0.145203,0.955139,-3.409424,1.607513,-53.675995,302197.802198,119238388.278388,60337216.117216,96.849411,1,2,1,1,4,40.000000
2025-11-11 12:45:44.708,,,,,,,,,,,,,,,,,,,,,,,,,,,,,,,,,,,,,,,,,,/muse/elements/blink
2025-11-11 12:45:45.071,,,,,,,,,,,,,,,,,,,,,,,,,,,,,,,,,,,,,,,,,,/muse/elements/blink
2025-11-11 12:45:45.134,0.2638427243089964,1.04001438757786,1.403702812193035,0,0.1991735688692299,0.594473840922491,1.040722106716925,0,0.4224860838076124,0.539678622624583,0.5654935975386064,0,0.5346565895014206,0.0562504798823015,0.05626559053139031,0,0.2595106964355283,-0.1111910496006452,-0.1693543088442077,0,849.3772893772895,795.3846153846154,811.5018315018315,923.5164835164835,711.1721611721612,0.153198,-0.018982,1.231689,-7.738495,15.985413,-32.711029,307032.967033,119364102.564103,60375091.575092,96.849411,1,2,1,1,2,40.000000
2025-11-11 12:45:45.919,,,,,,,,,,,,,,,,,,,,,,,,,,,,,,,,,,,,,,,,,,/muse/elements/blink
2025-11-11 12:45:46.142,0.2638427243089964,0.7037431471737342,1.285245028328982,0,0.1991735688692299,0.3802061174039137,0.9597604140943541,0,0.4224860838076124,0.4919878435130877,0.9653560145464531,0,0.5346565895014206,-0.06155176423513801,0.08817068021701505,0,0.2595106964355283,-0.3492152138380242,-0.3786953688524454,0,836.0805860805862,796.5934065934066,804.6520146520147,352.967032967033,533.8827838827839,0.026672,0.020203,1.208618,14.549866,18.340607,0.493469,314285.714286,119114285.714286,60304175.824176,96.849411,1,2,1,1,4,40.000000
2025-11-11 12:45:46.196,,,,,,,,,,,,,,,,,,,,,,,,,,,,,,,,,,,,,,,,,,/muse/elements/blink
2025-11-11 12:45:46.919,,,,,,,,,,,,,,,,,,,,,,,,,,,,,,,,,,,,,,,,,,/muse/elements/blink
2025-11-11 12:45:47.134,0.2638427243089964,1.142044218691191,1.187535540963587,0,0.1991735688692299,0.9028341777423387,0.5470507061913901,0,0.4224860838076124,0.8336084955800915,0.7067007277157208,0,0.5346565895014206,0.004075869803258487,0.0816180566633649,0,0.2595106964355283,-0.3620415517600598,-0.5411861769463733,0,801.4285714285714,807.8754578754579,784.5054945054945,1621.794871794872,1063.333333333333,-0.057251,-0.061951,0.953918,-2.848663,-0.396271,14.183502,327985.347985,118687985.347985,60202637.362637,96.849411,1,2,1,1,4,40.000000
2025-11-11 12:45:47.259,,,,,,,,,,,,,,,,,,,,,,,,,,,,,,,,,,,,,,,,,,/muse/elements/blink
2025-11-11 12:45:48.045,,,,,,,,,,,,,,,,,,,,,,,,,,,,,,,,,,,,,,,,,,/muse/elements/blink
2025-11-11 12:45:48.142,0.2638427243089964,0.9948320423796337,1.083032391970356,0,0.1991735688692299,0.690965536730596,0.6113785633458182,0,0.4224860838076124,0.9230599754221447,0.826450740459382,0,0.5346565895014206,0.3097699881630159,0.1482075991069164,0,0.2595106964355283,0.1316152970346704,-0.2860206137520745,0,806.6666666666667,806.6666666666667,772.4175824175825,827.2161172161173,690.6227106227107,-0.300720,0.177063,1.509155,3.641205,6.759033,-3.843079,380366.300366,118749230.769231,60153479.853480,99.327682,1,2,1,1,4,40.000000
2025-11-11 12:45:49.134,0.2638427243089964,1.128426246270028,1.125904920000209,0,0.1991735688692299,0.881155385901083,0.9124761014227827,0,0.4224860838076124,0.9230599754221447,0.826450740459382,0,0.5346565895014206,0.5149025537282402,0.2418227104453333,0,0.2595106964355283,0.4467748642012709,-0.1146326175589544,0,835.6776556776557,818.3516483516484,743.4065934065934,1393.333333333333,905.7875457875458,0.070435,0.054749,0.917603,6.041260,0.942078,81.960754,303809.523810,119474505.494505,60607179.487179,99.460030,1,2,1,1,4,40.000000
2025-11-11 12:45:49.681,,,,,,,,,,,,,,,,,,,,,,,,,,,,,,,,,,,,,,,,,,/muse/elements/blink
2025-11-11 12:45:50.134,0.2638427243089964,1.128426246270028,1.125904920000209,0,0.1991735688692299,0.881155385901083,0.9124761014227827,0,0.4224860838076124,0.9230599754221447,0.826450740459382,0,0.5346565895014206,0.5149025537282402,0.2418227104453333,0,0.2595106964355283,0.4467748642012709,-0.1146326175589544,0,743.8095238095239,857.8388278388279,713.992673992674,743.0036630036631,1127.399267399268,-0.450134,-0.002991,0.891724,24.008026,13.996582,-42.445831,305421.245421,118895897.435897,60163956.043956,99.460030,1,2,1,1,4,40.000000
2025-11-11 12:45:50.314,,,,,,,,,,,,,,,,,,,,,,,,,,,,,,,,,,,,,,,,,,/muse/elements/blink
2025-11-11 12:45:50.911,,,,,,,,,,,,,,,,,,,,,,,,,,,,,,,,,,,,,,,,,,/muse/elements/blink
2025-11-11 12:45:51.134,0.2638427243089964,1.128426246270028,1.125904920000209,0,0.1991735688692299,0.881155385901083,0.9124761014227827,0,0.4224860838076124,0.9230599754221447,0.826450740459382,0,0.5346565895014206,0.5149025537282402,0.2418227104453333,0,0.2595106964355283,0.4467748642012709,-0.1146326175589544,0,859.8534798534798,806.6666666666667,821.978021978022,1088.315018315018,838.0952380952381,-0.310059,0.109863,1.205750,-6.287994,10.617065,57.496643,309450.549451,119543809.523810,60392014.652015,99.460030,1,2,4,1,4,40.000000
2025-11-11 12:45:51.506,,,,,,,,,,,,,,,,,,,,,,,,,,,,,,,,,,,,,,,,,,/muse/elements/blink
2025-11-11 12:45:52.134,0.2638427243089964,1.128426246270028,1.125904920000209,0,0.1991735688692299,0.881155385901083,0.9124761014227827,0,0.4224860838076124,0.9230599754221447,0.826450740459382,0,0.5346565895014206,0.5149025537282402,0.2418227104453333,0,0.2595106964355283,0.4467748642012709,-0.1146326175589544,0,791.3553113553114,793.3699633699634,789.3406593406594,713.992673992674,588.2783882783883,0.015747,0.147583,0.994324,-5.839386,-8.433838,19.858398,311062.271062,119964468.864469,60740146.520147,99.460030,1,2,1,1,4,40.000000
2025-11-11 12:45:52.811,,,,,,,,,,,,,,,,,,,,,,,,,,,,,,,,,,,,,,,,,,/muse/elements/blink
2025-11-11 12:45:53.143,0.2638427243089964,0.8778397371487714,1.192292386887826,0,0.1991735688692299,0.440008881878798,0.7359491164995434,0,0.4224860838076124,0.4581787823787238,0.6364122142970918,0,0.5346565895014206,0.1771365869485302,-0.1442320271324998,0,0.2595106964355283,-0.1128466750702598,-0.3183327007659389,0,811.0989010989011,806.6666666666667,782.0879120879121,902.1611721611722,765.5677655677656,0.050537,-0.117065,0.963318,-4.164581,-10.160980,2.422485,309450.549451,119405201.465201,60436336.996337,99.745430,1,2,1,1,2,40.000000
2025-11-11 12:45:53.410,,,,,,,,,,,,,,,,,,,,,,,,,,,,,,,,,,,,,,,,,,/muse/elements/blink
2025-11-11 12:45:54.050,,,,,,,,,,,,,,,,,,,,,,,,,,,,,,,,,,,,,,,,,,/muse/elements/blink
2025-11-11 12:45:54.134,0.2638427243089964,0.3706292272110566,1.119786537583341,0,0.1991735688692299,-0.06900716474502544,0.6608792418994442,0,0.4224860838076124,0.4309478618209545,0.6364122142970918,0,0.5346565895014206,0.1554736773033263,-0.01145909092195785,0,0.2595106964355283,-0.1575193127214508,-0.5199261160727117,0,790.952380952381,824.7985347985348,788.1318681318681,777.6556776556777,749.8534798534798,0.051941,-0.029846,0.984314,-6.205750,17.877045,-12.830200,314285.714286,119243223.443223,60401684.981685,113.893143,1,2,1,1,2,40.000000
2025-11-11 12:45:54.328,,,,,,,,,,,,,,,,,,,,,,,,,,,,,,,,,,,,,,,,,,/muse/elements/blink
2025-11-11 12:45:54.669,,,,,,,,,,,,,,,,,,,,,,,,,,,,,,,,,,,,,,,,,,/muse/elements/blink
2025-11-11 12:45:55.135,0.2638427243089964,1.108287112989142,1.122938843691965,0,0.1991735688692299,0.7544270216378203,0.4323386757493943,0,0.4224860838076124,0.8298286890291008,0.3484322259217543,0,0.5346565895014206,0.3336615307903827,0.1380678710511275,0,0.2595106964355283,0.06942016188050516,-0.5230222611136112,0,796.5934065934066,799.8168498168499,812.3076923076924,960.989010989011,1006.923076923077,0.106262,0.071472,0.972046,-0.418701,-17.376099,-46.700134,327179.487179,119639706.959707,60626520.146520,124.421608,1,2,1,1,4,40.000000
2025-11-11 12:45:55.775,,,,,,,,,,,,,,,,,,,,,,,,,,,,,,,,,,,,,,,,,,/muse/elements/blink
2025-11-11 12:45:56.135,0.2638427243089964,1.203552444443582,1.745355253523397,0,0.1991735688692299,0.6862450999620291,1.289947893025355,0,0.4224860838076124,0.7969597278511452,1.095482354120801,0,0.5346565895014206,0.3119756398563553,0.154168869684208,0,0.2595106964355283,-0.06587828821669853,-0.5226588977561284,0,815.5311355311355,791.7582417582418,823.992673992674,995.2380952380953,1015.384615384615,0.052856,-0.088684,1.016907,-5.480499,-3.050537,-50.131989,312673.992674,119728351.648352,60657948.717949,128.821579,1,2,1,1,4,40.000000
2025-11-11 12:45:56.157,,,,,,,,,,,,,,,,,,,,,,,,,,,,,,,,,,,,,,,,,,/muse/elements/blink
2025-11-11 12:45:56.757,,,,,,,,,,,,,,,,,,,,,,,,,,,,,,,,,,,,,,,,,,/muse/elements/blink
2025-11-11 12:45:57.134,0.2638427243089964,1.178145337045907,1.59523426936355,0,0.1991735688692299,0.7025163173844101,0.9941116033171018,0,0.4224860838076124,0.6478803794341504,0.7935414845448917,0,0.5346565895014206,0.02888708473314514,-0.01048815366324465,0,0.2595106964355283,-0.1219941822443555,-0.3913711681434172,0,835.6776556776557,799.0109890109891,806.2637362637363,963.8095238095239,755.8974358974359,0.146729,-0.044800,1.050110,-12.000275,-5.368347,-41.376648,303003.663004,120041025.641026,60810256.410256,128.821579,1,2,1,1,4,40.000000
2025-11-11 12:45:57.865,,,,,,,,,,,,,,,,,,,,,,,,,,,,,,,,,,,,,,,,,,/muse/elements/blink
2025-11-11 12:45:58.135,0.2638427243089964,0.9710862092424043,1.611332647548176,0,0.1991735688692299,0.6383808955478325,1.135417789746527,0,0.4224860838076124,0.6249947521874283,0.9770972658849582,0,0.5346565895014206,0.02796971256635118,0.1053628746735765,0,0.2595106964355283,-0.2274934401172692,-0.4821060663850243,0,763.5531135531136,799.8168498168499,796.5934065934066,865.8974358974359,646.7032967032967,0.147644,0.076782,0.966431,-2.833710,-19.073334,-61.900482,304615.384615,120110329.670330,60841684.981685,128.821579,1,2,1,1,4,40.000000
2025-11-11 12:45:58.205,,,,,,,,,,,,,,,,,,,,,,,,,,,,,,,,,,,,,,,,,,/muse/elements/blink
2025-11-11 12:45:59.135,0.2638427243089964,0.9797197037283261,1.740127200269155,0,0.1991735688692299,0.6545189477745644,1.324675835781386,0,0.4224860838076124,0.6143187133688774,1.062967428087222,0,0.5346565895014206,0.09519767935609745,0.1701006194040557,0,0.2595106964355283,-0.2127257295948336,-0.563557823500983,0,803.040293040293,783.2967032967033,819.1575091575091,650.7326007326008,884.0293040293041,0.094727,0.089844,0.964355,0.702820,-5.405731,-36.636353,307032.967033,119952380.952381,60844102.564103,128.821579,1,2,1,1,4,40.000000
2025-11-11 12:46:00.136,0.2638427243089964,0.9737038555579445,1.288898207236429,0,0.1991735688692299,0.5200611462238967,0.8806640349505911,0,0.4224860838076124,0.5889500228364185,0.8779519102468888,0,0.5346565895014206,-0.01370430816448647,0.06194664062343654,0,0.2595106964355283,-0.1792715002674024,-0.4879025625751621,0,802.2344322344322,790.5494505494506,820.7692307692308,459.7435897435898,651.5384615384615,0.117554,0.092041,1.351135,10.632019,22.684631,4.770203,311868.131868,119809743.589744,60948058.608059,128.821579,1,2,1,1,4,40.000000
2025-11-11 12:46:00.315,,,,,,,,,,,,,,,,,,,,,,,,,,,,,,,,,,,,,,,,,,/muse/elements/blink
2025-11-11 12:46:00.549,,,,,,,,,,,,,,,,,,,,,,,,,,,,,,,,,,,,,,,,,,/muse/elements/blink
2025-11-11 12:46:01.134,0.2638427243089964,0.3705060282253904,0.9319584600606785,0,0.1991735688692299,0.06421468526629621,0.4680239061538284,0,0.4224860838076124,0.06686701365555343,0.4227947711226521,0,0.5346565895014206,-0.1688055663898277,-0.1684405568730487,0,0.2595106964355283,-0.2294534666903011,-0.4011106925779763,0,798.2051282051282,799.4139194139194,794.981684981685,774.4322344322345,593.919413919414,0.059692,0.004333,1.032776,3.342133,-10.878754,7.327271,327179.487179,119697728.937729,60849743.589744,128.821579,1,2,1,1,4,40.000000
2025-11-11 12:46:02.134,0.2638427243089964,1.152165910686031,1.271259725410746,0,0.1991735688692299,1.105874592437474,0.7491466924316966,0,0.4224860838076124,0.6755413506618285,0.3938809863387929,0,0.5346565895014206,-0.05241992755191641,-0.06403332135249765,0,0.2595106964355283,-0.3202033154928691,-0.3496781192509578,0,797.8021978021978,809.8901098901099,788.1318681318681,974.6886446886447,807.0695970695971,0.198486,-0.138611,0.925842,6.467438,-23.477173,38.909302,327985.347985,119926593.406593,60940805.860806,127.316490,1,2,1,1,4,40.000000
2025-11-11 12:46:02.560,,,,,,,,,,,,,,,,,,,,,,,,,,,,,,,,,,,,,,,,,,/muse/elements/blink
2025-11-11 12:46:03.134,0.2638427243089964,1.003129678023029,1.221246393144587,0,0.1991735688692299,0.8550753113264326,0.5218523789460173,0,0.4224860838076124,0.6498134547339728,0.413446695315793,0,0.5346565895014206,-0.04522128155023546,-0.1441805951907914,0,0.2595106964355283,-0.3348223316459523,-0.4190624186220271,0,797.8021978021978,804.2490842490843,794.981684981685,785.7142857142858,581.8315018315019,0.146606,-0.035339,0.838013,15.596619,1.502838,53.481598,303809.523810,120169963.369963,61022197.802198,116.193542,1,2,1,1,2,40.000000
2025-11-11 12:46:03.372,,,,,,,,,,,,,,,,,,,,,,,,,,,,,,,,,,,,,,,,,,/muse/elements/blink
2025-11-11 12:46:03.693,,,,,,,,,,,,,,,,,,,,,,,,,,,,,,,,,,,,,,,,,,/muse/elements/blink
2025-11-11 12:46:04.134,0.2638427243089964,0.6018345880376719,1.526659006609568,0,0.1991735688692299,0.2426918474887269,1.193795204478257,0,0.4224860838076124,0.2013931197405515,0.7310092926101113,0,0.5346565895014206,-0.0789004814607473,0.08203271618587164,0,0.2595106964355283,-0.3338387670498585,-0.3374715513929298,0,848.1684981684982,810.2930402930403,787.3260073260074,913.040293040293,660.4029304029305,0.194336,0.002625,0.939514,-1.547699,-6.609497,36.905518,303809.523810,120497948.717949,61139853.479853,109.311821,1,2,1,1,4,40.000000
2025-11-11 12:46:04.486,,,,,,,,,,,,,,,,,,,,,,,,,,,,,,,,,,,,,,,,,,/muse/elements/blink
2025-11-11 12:46:04.827,,,,,,,,,,,,,,,,,,,,,,,,,,,,,,,,,,,,,,,,,,/muse/elements/blink
2025-11-11 12:46:05.134,0.2638427243089964,0.8792217341622924,1.556307051352503,0,0.1991735688692299,0.5175987696716793,1.328606230774252,0,0.4224860838076124,0.4873843391694865,0.9554302752477934,0,0.5346565895014206,0.01709488289989776,0.1334084750645859,0,0.2595106964355283,-0.3266517153843648,-0.3546129209673644,0,834.4688644688645,814.3223443223443,790.5494505494506,822.3809523809524,1075.824175824176,-0.094849,-0.040100,0.888062,17.450867,3.529053,27.858582,309450.549451,120113553.113553,60853772.893773,104.237404,1,2,1,1,2,40.000000
2025-11-11 12:46:06.135,0.2638427243089964,1.173747695303549,1.565021698777479,0,0.1991735688692299,0.6493538979513831,1.388049723807654,0,0.4224860838076124,0.5568486861542352,0.9395087874336305,0,0.5346565895014206,0.14503340543429,0.0827483789319847,0,0.2595106964355283,-0.04807615819622497,-0.3344692846266804,0,814.7252747252747,803.8461538461539,794.1758241758242,634.2124542124542,641.8681318681319,0.085815,0.087463,1.177612,13.308716,-6.041260,26.251068,307032.967033,120605934.065934,61168058.608059,101.804718,1,2,1,1,2,40.000000
2025-11-11 12:46:06.403,,,,,,,,,,,,,,,,,,,,,,,,,,,,,,,,,,,,,,,,,,/muse/elements/blink
2025-11-11 12:46:07.136,0.2638427243089964,0.8329316509944013,0.7293907121201414,0,0.1991735688692299,0.3378600755413733,0.2600272513173466,0,0.4224860838076124,0.4494182714764756,0.6513310528217704,0,0.5346565895014206,0.1575326739568737,0.3992352001631899,0,0.2595106964355283,-0.0835416242909722,0.2329340761969546,0,732.1245421245421,827.6190476190476,750.2564102564103,763.1501831501831,649.5238095238095,0.205078,-0.006714,0.950745,-8.112335,-10.594635,-12.665710,308644.688645,120302930.402930,61114065.934066,101.804718,1,2,1,1,2,40.000000
2025-11-11 12:46:07.339,,,,,,,,,,,,,,,,,,,,,,,,,,,,,,,,,,,,,,,,,,/muse/elements/blink
2025-11-11 12:46:07.869,,,,,,,,,,,,,,,,,,,,,,,,,,,,,,,,,,,,,,,,,,/muse/elements/blink
2025-11-11 12:46:08.135,0.2638427243089964,0.6074896565855336,0.752773295167953,0,0.1991735688692299,0.1549499986185098,0.5659355833361173,0,0.4224860838076124,0.5525645203323063,0.7151981686601535,0,0.5346565895014206,0.3189481770321937,0.6655223790519874,0,0.2595106964355283,0.07324187562939004,0.4770939172705939,0,835.2747252747253,792.1611721611722,826.4102564102565,908.2051282051282,1035.531135531136,0.215027,-0.047668,0.932007,-7.701111,-12.972260,-14.183502,316703.296703,120347252.747253,61114871.794872,96.967567,1,2,1,1,2,40.000000
2025-11-11 12:46:09.087,,,,,,,,,,,,,,,,,,,,,,,,,,,,,,,,,,,,,,,,,,/muse/elements/blink
2025-11-11 12:46:09.141,0.2638427243089964,0.7643911217420524,0.9096484302967373,0,0.1991735688692299,0.264238326594894,0.8179718940396132,0,0.4224860838076124,0.5455965779271513,0.7081566289330672,0,0.5346565895014206,0.5097436521934153,0.8930713186381262,0,0.2595106964355283,0.245140197504614,0.7217193907558319,0,783.6996336996338,799.8168498168499,801.8315018315019,1622.197802197802,734.9450549450549,0.196777,0.013611,1.092163,-11.633911,15.574188,-44.666443,307032.967033,120255384.615385,61086666.666667,90.320053,1,2,1,1,2,40.000000
2025-11-11 12:46:09.794,,,,,,,,,,,,,,,,,,,,,,,,,,,,,,,,,,,,,,,,,,/muse/elements/blink
2025-11-11 12:46:10.072,,,,,,,,,,,,,,,,,,,,,,,,,,,,,,,,,,,,,,,,,,/muse/elements/blink
2025-11-11 12:46:10.134,0.2638427243089964,0.8140587552518236,0.9096484302967373,0,0.1991735688692299,0.3297160846277472,0.8179718940396132,0,0.4224860838076124,0.2962710416954454,0.7081566289330672,0,0.5346565895014206,0.02388359426695623,0.8930713186381262,0,0.2595106964355283,-0.1641563329568329,0.7217193907558319,0,777.6556776556777,801.4285714285714,817.948717948718,508.4981684981685,780.0732600732601,0.118042,0.106018,0.948853,-9.256287,-22.766876,-59.081726,306227.106227,120283589.743590,61087472.527473,90.320053,1,2,1,1,4,40.000000
2025-11-11 12:46:11.134,0.2638427243089964,1.009518491421616,0.9096484302967373,0,0.1991735688692299,0.7776476715790882,0.8179718940396132,0,0.4224860838076124,0.7106131340944629,0.7081566289330672,0,0.5346565895014206,0.09364129045546027,0.8930713186381262,0,0.2595106964355283,-0.07249156611264707,0.7217193907558319,0,830.8424908424909,801.025641025641,809.8901098901099,995.2380952380953,920.6959706959707,0.144348,-0.034912,0.927429,-13.450775,-13.271332,-53.735809,300586.080586,120476996.336996,61109230.769231,90.320053,1,2,1,1,4,40.000000
2025-11-11 12:46:12.135,0.2638427243089964,0.7857120329167249,1.704804105063374,0,0.1991735688692299,0.5795410242952562,1.326750353896147,0,0.4224860838076124,0.5677374204610436,0.9477408237003171,0,0.5346565895014206,0.1420061446369846,0.167482445952275,0,0.2595106964355283,-0.1147409818619328,-0.5307851449746062,0,817.948717948718,808.2783882783883,813.5164835164835,883.2234432234433,571.3553113553114,0.127380,0.143005,1.084656,-4.897308,13.600311,-50.588074,303003.663004,120726007.326007,61168058.608059,90.320053,1,2,1,1,2,40.000000
2025-11-11 12:46:12.222,,,,,,,,,,,,,,,,,,,,,,,,,,,,,,,,,,,,,,,,,,/muse/elements/blink
2025-11-11 12:46:12.734,,,,,,,,,,,,,,,,,,,,,,,,,,,,,,,,,,,,,,,,,,/muse/elements/blink
2025-11-11 12:46:13.012,,,,,,,,,,,,,,,,,,,,,,,,,,,,,,,,,,,,,,,,,,/muse/elements/blink
2025-11-11 12:46:13.135,0.2638427243089964,0.8792753262671272,1.740332756090025,0,0.1991735688692299,0.5924297339644367,1.477188584533721,0,0.4224860838076124,0.4751198807455429,1.098812074174556,0,0.5346565895014206,0.1192027005766865,0.2185958010709682,0,0.2595106964355283,-0.3279257298016569,-0.5699383247224601,0,623.7362637362637,805.4578754578755,838.4981684981685,808.2783882783883,702.7106227106227,0.132080,0.100830,0.897400,8.568420,-0.755157,-14.183502,311062.271062,120728424.908425,61161611.721612,98.205055,1,2,1,1,2,40.000000
2025-11-11 12:46:13.715,,,,,,,,,,,,,,,,,,,,,,,,,,,,,,,,,,,,,,,,,,/muse/elements/blink
2025-11-11 12:46:14.135,0.2638427243089964,0.7140337839827627,1.536451748625691,0,0.1991735688692299,0.5218144675435821,1.3601214602296,0,0.4224860838076124,0.3899126477449039,1.035703448218261,0,0.5346565895014206,0.05841820139879051,0.1706773743623711,0,0.2595106964355283,-0.5041927156305088,-0.5192378585614428,0,813.1135531135532,811.0989010989011,757.5091575091575,347.3260073260074,959.3772893772895,-0.004822,0.012756,0.903137,0.366364,-0.762634,1.876678,323150.183150,120507619.047619,60973040.293040,99.124893,1,2,1,1,2,40.000000
2025-11-11 12:46:14.249,,,,,,,,,,,,,,,,,,,,,,,,,,,,,,,,,,,,,,,,,,/muse/elements/blink
2025-11-11 12:46:15.135,0.2638427243089964,0.6310248816526565,1.425593207299026,0,0.1991735688692299,0.4536574356609389,1.272192219173951,0,0.4224860838076124,0.2224566462318694,0.9057163060315675,0,0.5346565895014206,0.002288997007903786,0.1175787813106448,0,0.2595106964355283,-0.4833387386487779,-0.5322403400099126,0,818.7545787545788,807.0695970695971,783.6996336996338,829.2307692307693,640.2564102564103,0.101440,0.125977,0.971375,0.635529,-2.863617,36.314850,318315.018315,120575311.355311,61060879.120879,99.124893,1,2,1,1,4,40.000000
2025-11-11 12:46:15.866,,,,,,,,,,,,,,,,,,,,,,,,,,,,,,,,,,,,,,,,,,/muse/elements/blink
2025-11-11 12:46:16.134,0.2638427243089964,0.6310248816526565,1.425593207299026,0,0.1991735688692299,0.4536574356609389,1.272192219173951,0,0.4224860838076124,0.2224566462318694,0.9057163060315675,0,0.5346565895014206,0.002288997007903786,0.1175787813106448,0,0.2595106964355283,-0.4833387386487779,-0.5322403400099126,0,741.3919413919414,797.8021978021978,812.7106227106227,820.3663003663004,724.0659340659341,0.259583,0.030762,1.071411,14.774170,-5.891724,37.114868,304615.384615,120144981.684982,60988351.648352,99.124893,1,2,1,1,4,40.000000
2025-11-11 12:46:16.251,,,,,,,,,,,,,,,,,,,,,,,,,,,,,,,,,,,,,,,,,,/muse/elements/blink
2025-11-11 12:46:17.080,,,,,,,,,,,,,,,,,,,,,,,,,,,,,,,,,,,,,,,,,,/muse/elements/blink
2025-11-11 12:46:17.135,0.2638427243089964,0.970322290419246,1.425593207299026,0,0.1991735688692299,0.6718686720672117,1.272192219173951,0,0.4224860838076124,0.6391936643223962,0.9057163060315675,0,0.5346565895014206,0.06381602238581119,0.1175787813106448,0,0.2595106964355283,-0.4258355967704759,-0.5322403400099126,0,786.9230769230769,810.6959706959707,797.8021978021978,703.1135531135532,857.8388278388279,0.137207,-0.017151,0.938904,9.503021,-9.301147,53.347015,300586.080586,119741245.421245,60876336.996337,99.124893,1,2,1,1,2,40.000000
2025-11-11 12:46:17.785,,,,,,,,,,,,,,,,,,,,,,,,,,,,,,,,,,,,,,,,,,/muse/elements/blink
2025-11-11 12:46:18.136,0.2638427243089964,0.9919617972510587,1.446495711836659,0,0.1991735688692299,0.6714865752587867,1.015579831931198,0,0.4224860838076124,0.6694213581925746,0.6169462159665833,0,0.5346565895014206,0.07675451237098237,-0.0377935427809216,0,0.2595106964355283,-0.328647757141213,-0.285245904130498,0,817.948717948718,803.040293040293,813.1135531135532,346.1172161172161,689.0109890109891,0.143127,0.078186,0.966675,6.684265,0.538330,54.341431,303809.523810,120222344.322344,61102783.882784,92.921745,1,2,1,1,2,40.000000
2025-11-11 12:46:18.509,,,,,,,,,,,,,,,,,,,,,,,,,,,,,,,,,,,,,,,,,,/muse/elements/blink
2025-11-11 12:46:18.913,,,,,,,,,,,,,,,,,,,,,,,,,,,,,,,,,,,,,,,,,,/muse/elements/blink
2025-11-11 12:46:19.135,0.2638427243089964,1.101879280885933,1.475231879972994,0,0.1991735688692299,1.060750511081124,1.08256226904206,0,0.4224860838076124,0.9545594628290202,0.607778656945658,0,0.5346565895014206,0.1006221523176205,-0.145858910853019,0,0.2595106964355283,-0.2178415930035505,-0.278685863599823,0,754.2857142857143,796.5934065934066,806.6666666666667,910.6227106227107,773.2234432234433,-0.024841,0.007141,1.149597,14.048920,-2.392578,28.591309,307032.967033,120354505.494505,61051208.791209,92.921745,1,2,1,1,2,40.000000
2025-11-11 12:46:19.444,,,,,,,,,,,,,,,,,,,,,,,,,,,,,,,,,,,,,,,,,,/muse/elements/blink
2025-11-11 12:46:19.722,,,,,,,,,,,,,,,,,,,,,,,,,,,,,,,,,,,,,,,,,,/muse/elements/blink
2025-11-11 12:46:20.128,,,,,,,,,,,,,,,,,,,,,,,,,,,,,,,,,,,,,,,,,,/muse/elements/blink
2025-11-11 12:46:20.138,0.2638427243089964,1.223366696171875,1.475231879972994,0,0.1991735688692299,1.113907548448127,1.08256226904206,0,0.4224860838076124,0.9788046439724033,0.607778656945658,0,0.5346565895014206,0.3236402946816099,-0.145858910853019,0,0.2595106964355283,-0.3166159467164427,-0.278685863599823,0,872.7472527472528,790.952380952381,787.7289377289378,855.0183150183151,666.4468864468864,-0.012451,-0.012756,1.002930,-9.981537,-13.204041,24.322052,307032.967033,120503589.743590,60968205.128205,99.554688,1,2,1,1,2,40.000000
2025-11-11 12:46:21.139,0.2638427243089964,1.111494450135036,1.475231879972994,0,0.1991735688692299,0.6606839693152232,1.08256226904206,0,0.4224860838076124,0.6893030291703418,0.607778656945658,0,0.5346565895014206,0.2591478154931356,-0.145858910853019,0,0.2595106964355283,-0.4826624807902252,-0.278685863599823,0,772.8205128205128,799.8168498168499,809.0842490842491,969.047619047619,780.4761904761905,0.174133,0.053101,0.920105,0.029907,-1.360779,2.467346,306227.106227,121048351.648352,61333260.073260,99.554688,1,2,1,1,2,40.000000
2025-11-11 12:46:21.362,,,,,,,,,,,,,,,,,,,,,,,,,,,,,,,,,,,,,,,,,,/muse/elements/blink
2025-11-11 12:46:21.637,,,,,,,,,,,,,,,,,,,,,,,,,,,,,,,,,,,,,,,,,,/muse/elements/blink
2025-11-11 12:46:22.135,0.2638427243089964,1.112289744406269,0.9614618623151792,0,0.1991735688692299,0.6369082492453989,0.697683299210954,0,0.4224860838076124,0.6505349425204592,0.7344804584662031,0,0.5346565895014206,-0.04124238779135819,-0.1178277014671401,0,0.2595106964355283,-0.2997442148418408,-0.4503412426115531,0,819.5604395604396,805.4578754578755,791.3553113553114,862.6739926739926,615.6776556776557,0.118286,-0.099426,0.977417,-7.873077,16.075134,-40.157928,307838.827839,120719560.439560,61158388.278388,88.422531,1,2,1,1,2,40.000000
2025-11-11 12:46:22.677,,,,,,,,,,,,,,,,,,,,,,,,,,,,,,,,,,,,,,,,,,/muse/elements/blink
2025-11-11 12:46:22.955,,,,,,,,,,,,,,,,,,,,,,,,,,,,,,,,,,,,,,,,,,/muse/elements/blink
2025-11-11 12:46:23.135,0.2638427243089964,0.7862051125307694,1.442786161496137,0,0.1991735688692299,0.442942039109781,1.024307360211831,0,0.4224860838076124,0.4401212918489947,0.7996580901073923,0,0.5346565895014206,-0.1503416662258377,-0.1867808904885337,0,0.2595106964355283,-0.1592134557675536,-0.4178783352827705,0,815.1282051282052,818.3516483516484,810.2930402930403,836.8864468864469,782.893772893773,-0.144348,0.193298,0.802124,-3.192596,34.497986,-95.157318,322344.322344,119588937.728938,60587838.827839,88.422531,1,2,1,1,2,40.000000
2025-11-11 12:46:23.274,,,,,,,,,,,,,,,,,,,,,,,,,,,,,,,,,,,,,,,,,,/muse/elements/blink
2025-11-11 12:46:23.786,,,,,,,,,,,,,,,,,,,,,,,,,,,,,,,,,,,,,,,,,,/muse/elements/blink
2025-11-11 12:46:24.084,,,,,,,,,,,,,,,,,,,,,,,,,,,,,,,,,,,,,,,,,,/muse/elements/blink
2025-11-11 12:46:24.136,0.2638427243089964,0.7101060003748231,1.609833789750536,0,0.1991735688692299,0.5383099242810027,1.126862179170613,0,0.4224860838076124,0.3268561619937396,0.7694234403122341,0,0.5346565895014206,-0.1523094520443913,-0.1361650597822506,0,0.2595106964355283,-0.09268353540236227,-0.3192034489999005,0,751.0622710622711,809.4871794871796,755.4945054945055,371.9047619047619,633.4065934065934,-0.092896,0.222290,0.890076,11.005859,14.295654,-51.627350,312673.992674,119431794.871795,60577362.637363,95.438377,1,2,1,1,2,40.000000
2025-11-11 12:46:24.297,,,,,,,,,,,,,,,,,,,,,,,,,,,,,,,,,,,,,,,,,,/muse/elements/blink
2025-11-11 12:46:25.143,0.2638427243089964,1.121405165600849,1.609833789750536,0,0.1991735688692299,1.402662989522089,1.126862179170613,0,0.4224860838076124,1.198369091729523,0.7694234403122341,0,0.5346565895014206,0.4137713516669141,-0.1361650597822506,0,0.2595106964355283,0.1548993845326289,-0.3192034489999005,0,886.0439560439561,785.3113553113553,759.1208791208792,1136.263736263736,735.7509157509157,-0.116638,0.116882,0.924133,9.944153,-22.624817,-76.719513,303003.663004,119692893.772894,60580586.080586,96.167877,1,2,1,1,2,40.000000
2025-11-11 12:46:25.197,,,,,,,,,,,,,,,,,,,,,,,,,,,,,,,,,,,,,,,,,,/muse/elements/blink
2025-11-11 12:46:26.143,0.2638427243089964,1.101557084294869,1.609833789750536,0,0.1991735688692299,1.332073274974653,1.126862179170613,0,0.4224860838076124,1.117371222862047,0.7694234403122341,0,0.5346565895014206,0.3947265617500457,-0.1361650597822506,0,0.2595106964355283,0.1897272263035212,-0.3192034489999005,0,821.1721611721612,817.948717948718,761.1355311355312,893.6996336996338,677.7289377289377,0.027588,-0.024231,0.943481,-5.428162,-4.598236,-51.380615,304615.384615,120333553.113553,60986739.926740,96.167877,1,2,1,1,2,40.000000
2025-11-11 12:46:27.135,0.2638427243089964,0.6348470684111536,1.364977242291671,0,0.1991735688692299,0.5262052141995536,0.9984314111829107,0,0.4224860838076124,0.3791399038322366,0.644358296348297,0,0.5346565895014206,0.001856978860362904,-0.0891280791435209,0,0.2595106964355283,-0.2472353373028843,-0.6590702193391191,0,732.5274725274726,804.6520146520147,802.6373626373627,841.3186813186813,774.8351648351648,0.154053,0.143738,0.921753,-5.405731,14.983521,-13.660126,309450.549451,120666373.626374,61164029.304029,96.167877,1,2,1,1,2,40.000000
2025-11-11 12:46:27.983,,,,,,,,,,,,,,,,,,,,,,,,,,,,,,,,,,,,,,,,,,/muse/elements/blink
2025-11-11 12:46:28.142,0.2638427243089964,0.5129615029626901,1.070969019741544,0,0.1991735688692299,0.3267999021368769,0.7308687283382718,0,0.4224860838076124,0.3074676114605202,0.6504099341484161,0,0.5346565895014206,-0.01309520726019224,-0.01636419970531803,0,0.2595106964355283,-0.3879690452749835,-0.6294439536836386,0,791.3553113553114,795.3846153846154,810.6959706959707,861.0622710622711,891.2820512820513,0.161316,0.074402,0.844482,5.839386,4.336548,14.654541,319120.879121,120643003.663004,61081025.641026,88.465225,1,2,1,1,2,40.000000
2025-11-11 12:46:28.154,,,,,,,,,,,,,,,,,,,,,,,,,,,,,,,,,,,,,,,,,,/muse/elements/blink
2025-11-11 12:46:28.346,,,,,,,,,,,,,,,,,,,,,,,,,,,,,,,,,,,,,,,,,,/muse/elements/blink
2025-11-11 12:46:28.855,,,,,,,,,,,,,,,,,,,,,,,,,,,,,,,,,,,,,,,,,,/muse/elements/blink
2025-11-11 12:46:29.142,0.2638427243089964,0.943934708636362,0.9901064588555984,0,0.1991735688692299,0.4208225483237427,0.7301670336462636,0,0.4224860838076124,0.2620492898867523,0.904927091066173,0,0.5346565895014206,-0.02851213182815956,0.1831641684046718,0,0.2595106964355283,-0.3581895922748903,-0.5602464931614997,0,848.974358974359,778.0586080586081,857.4358974358975,862.2710622710623,883.6263736263736,-0.136536,-0.045044,0.953918,-13.248901,-5.263672,48.569336,348937.728938,119728351.648352,60391208.791209,84.250183,1,2,1,1,2,40.000000
2025-11-11 12:46:30.071,,,,,,,,,,,,,,,,,,,,,,,,,,,,,,,,,,,,,,,,,,/muse/elements/blink
2025-11-11 12:46:30.135,0.2638427243089964,1.163248091357182,1.14454716453744,0,0.1991735688692299,0.5214688231865813,0.8942454389494553,0,0.4224860838076124,0.2602614431029363,0.904927091066173,0,0.5346565895014206,0.04915690690721782,0.2477895810953417,0,0.2595106964355283,-0.2128175582446459,-0.5682854131730966,0,747.032967032967,790.952380952381,852.6007326007326,2.820512820512821,560.8791208791209,-0.008423,0.132874,1.117981,4.142151,26.295929,46.161804,409377.289377,119620366.300366,60370256.410256,86.118706,1,2,1,1,2,40.000000
2025-11-11 12:46:30.410,,,,,,,,,,,,,,,,,,,,,,,,,,,,,,,,,,,,,,,,,,/muse/elements/blink
2025-11-11 12:46:30.878,,,,,,,,,,,,,,,,,,,,,,,,,,,,,,,,,,,,,,,,,,/muse/elements/blink
2025-11-11 12:46:31.135,0.2638427243089964,0.9553921685013747,1.14454716453744,0,0.1991735688692299,0.523157955367297,0.8942454389494553,0,0.4224860838076124,0.5677913598640908,0.904927091066173,0,0.5346565895014206,0.1001568959251023,0.2477895810953417,0,0.2595106964355283,-0.1537541542161131,-0.5682854131730966,0,885.2380952380953,788.1318681318681,790.1465201465202,1035.128205128205,763.5531135531136,0.019348,0.127625,1.006104,0.762634,-33.645630,60.831299,303809.523810,119660659.340659,60447619.047619,87.617516,1,2,1,1,4,40.000000
2025-11-11 12:46:32.004,,,,,,,,,,,,,,,,,,,,,,,,,,,,,,,,,,,,,,,,,,/muse/elements/blink
2025-11-11 12:46:32.143,0.2638427243089964,1.262688366668475,1.14454716453744,0,0.1991735688692299,0.8862756602884122,0.8942454389494553,0,0.4224860838076124,0.7229479142973784,0.904927091066173,0,0.5346565895014206,0.2216276259989821,0.2477895810953417,0,0.2595106964355283,-0.1473102168061356,-0.5682854131730966,0,821.1721611721612,784.5054945054945,821.978021978022,908.6080586080586,979.1208791208792,0.123474,-0.169678,0.974731,10.377808,11.835785,53.653564,306227.106227,119811355.311355,60647472.527473,87.617516,1,2,1,1,4,40.000000
2025-11-11 12:46:32.324,,,,,,,,,,,,,,,,,,,,,,,,,,,,,,,,,,,,,,,,,,/muse/elements/blink
2025-11-11 12:46:33.142,0.2638427243089964,1.026020436187387,1.14454716453744,0,0.1991735688692299,0.7581382073181043,0.8942454389494553,0,0.4224860838076124,0.5202813513681867,0.904927091066173,0,0.5346565895014206,0.09741277134789708,0.2477895810953417,0,0.2595106964355283,-0.1682031961073511,-0.5682854131730966,0,841.7216117216118,803.040293040293,791.7582417582418,832.4542124542124,565.3113553113553,-0.049683,0.045776,0.980347,6.482391,12.202148,45.032806,307838.827839,119888717.948718,60607179.487179,87.617516,1,2,1,1,2,40.000000
2025-11-11 12:46:33.216,,,,,,,,,,,,,,,,,,,,,,,,,,,,,,,,,,,,,,,,,,/muse/elements/blink
2025-11-11 12:46:34.141,0.2638427243089964,0.6638583933906849,1.06827632536151,0,0.1991735688692299,0.42615934420372,0.2442739940018576,0,0.4224860838076124,0.445557536367489,0.3024476286600734,0,0.5346565895014206,0.0402273114064531,0.2564020269027336,0,0.2595106964355283,0.0009179752898610426,-0.07883122435534197,0,816.3369963369963,801.025641025641,798.6080586080586,778.8644688644689,686.1904761904763,0.066833,0.018494,0.947388,-0.269165,-0.269165,0.643005,307838.827839,120292454.212454,60837655.677656,87.617516,1,2,1,1,2,40.000000
2025-11-11 12:46:34.449,,,,,,,,,,,,,,,,,,,,,,,,,,,,,,,,,,,,,,,,,,/muse/elements/blink
2025-11-11 12:46:35.146,0.2638427243089964,0.4584097253607951,1.04366469684883,0,0.1991735688692299,0.07904261194864226,0.3369007722714275,0,0.4224860838076124,0.04106936016757287,0.5666624226023502,0,0.5346565895014206,-0.116548883144733,0.0292335153402322,0,0.2595106964355283,-0.2132067827268207,-0.434869154519674,0,818.7545787545788,802.2344322344322,803.4432234432235,228.0586080586081,799.4139194139194,-0.020386,-0.126282,1.043457,-8.575897,15.992889,-27.858582,316703.296703,120525347.985348,60993186.813187,87.617516,1,2,1,1,4,40.000000
2025-11-11 12:46:35.473,,,,,,,,,,,,,,,,,,,,,,,,,,,,,,,,,,,,,,,,,,/muse/elements/blink
2025-11-11 12:46:36.135,0.2638427243089964,0.6446144424596335,1.470871448873066,0,0.1991735688692299,0.1435984375830123,1.024040448334359,0,0.4224860838076124,-0.05337268107857188,0.9263731642300046,0,0.5346565895014206,-0.05907446776492604,0.1483910390355783,0,0.2595106964355283,-0.5725345211412136,-0.4764266893299527,0,816.3369963369963,802.6373626373627,807.8754578754579,890.0732600732601,581.8315018315019,0.079529,-0.018494,0.947021,-8.717957,6.848755,-39.148560,322344.322344,120703443.223443,61085054.945055,87.617516,1,2,1,1,4,40.000000
2025-11-11 12:46:37.135,0.2638427243089964,0.9930159911274563,1.664242742553552,0,0.1991735688692299,0.6367410406562626,1.20260752679324,0,0.4224860838076124,0.2061428542447862,0.9778649026191423,0,0.5346565895014206,0.1392045191557109,0.2108795057153436,0,0.2595106964355283,-0.1318412361925405,-0.3588382006533521,0,757.5091575091575,799.4139194139194,797.3992673992674,977.1062271062272,839.3040293040293,0.172852,0.147156,0.944641,-7.058105,-11.043243,-37.511139,305421.245421,120549523.809524,61055238.095238,80.861359,1,2,1,1,4,40.000000
2025-11-11 12:46:37.732,,,,,,,,,,,,,,,,,,,,,,,,,,,,,,,,,,,,,,,,,,/muse/elements/blink
2025-11-11 12:46:38.135,0.2638427243089964,0.92749259654216,1.163343651608672,0,0.1991735688692299,0.5514712553540739,0.9519489145041673,0,0.4224860838076124,0.4289731342786382,0.5910133493765586,0,0.5346565895014206,0.02856577021914991,-0.1177260767182114,0,0.2595106964355283,-0.2091800289536866,-0.2558014659883178,0,838.4981684981685,810.2930402930403,802.2344322344322,863.0769230769231,685.7875457875458,0.068665,-0.004578,1.452087,-13.682556,9.450684,-56.554565,302197.802198,120563223.443223,61089890.109890,80.861359,1,2,1,1,2,40.000000
2025-11-11 12:46:38.414,,,,,,,,,,,,,,,,,,,,,,,,,,,,,,,,,,,,,,,,,,/muse/elements/blink
2025-11-11 12:46:38.712,,,,,,,,,,,,,,,,,,,,,,,,,,,,,,,,,,,,,,,,,,/muse/elements/blink
2025-11-11 12:46:39.135,0.2638427243089964,1.020853182834538,1.163343651608672,0,0.1991735688692299,0.5182410626424031,0.9519489145041673,0,0.4224860838076124,0.5840146159044052,0.5910133493765586,0,0.5346565895014206,0.05642040957911023,-0.1177260767182114,0,0.2595106964355283,-0.2102843839309889,-0.2558014659883178,0,796.996336996337,801.4285714285714,814.3223443223443,564.5054945054945,580.6227106227107,0.175476,0.045593,1.079773,-6.766510,-12.217102,-39.305573,303003.663004,120795311.355311,61199487.179487,80.861359,1,2,1,1,2,40.000000
2025-11-11 12:46:39.543,,,,,,,,,,,,,,,,,,,,,,,,,,,,,,,,,,,,,,,,,,/muse/elements/blink
2025-11-11 12:46:39.820,,,,,,,,,,,,,,,,,,,,,,,,,,,,,,,,,,,,,,,,,,/muse/elements/blink
2025-11-11 12:46:40.134,0.2638427243089964,1.082315076243367,1.7008236936077,0,0.1991735688692299,0.6793187427806777,1.196491485864828,0,0.4224860838076124,0.5734137069915926,0.8160581275747287,0,0.5346565895014206,0.08110880621412234,-0.18844492323665,0,0.2595106964355283,-0.2605080171841466,-0.3790658792466674,0,807.8754578754579,798.2051282051282,811.0989010989011,827.2161172161173,747.4358974358975,0.103699,0.147095,0.956482,0.672913,-8.045044,-27.649231,307838.827839,120800952.380952,61237362.637363,80.861359,1,2,1,1,2,40.000000
2025-11-11 12:46:40.630,,,,,,,,,,,,,,,,,,,,,,,,,,,,,,,,,,,,,,,,,,/muse/elements/blink
2025-11-11 12:46:41.135,0.2638427243089964,0.6316483796302385,1.489497904556778,0,0.1991735688692299,0.4275653683504486,1.071308995108794,0,0.4224860838076124,0.288212761474436,0.8579896577286313,0,0.5346565895014206,-0.06899376072282379,-0.04117480391228942,0,0.2595106964355283,-0.4708675158588294,-0.4627034627908975,0,839.3040293040293,801.4285714285714,799.0109890109891,1622.197802197802,815.934065934066,0.052368,-0.137695,0.968201,-9.226379,3.252411,-0.710297,313479.853480,120770329.670330,61155164.835165,80.861359,1,2,1,1,2,40.000000
2025-11-11 12:46:41.989,,,,,,,,,,,,,,,,,,,,,,,,,,,,,,,,,,,,,,,,,,/muse/elements/blink
2025-11-11 12:46:42.135,0.2638427243089964,0.1082364228918211,0.9113869042595115,0,0.1991735688692299,0.009923833212838356,0.6811524654286225,0,0.4224860838076124,-0.1779788771233147,0.534062462420544,0,0.5346565895014206,-0.102753453166707,-0.03467745000518162,0,0.2595106964355283,-0.3876650273706569,-0.3464425715562384,0,682.5641025641025,802.6373626373627,832.4542124542124,264.3223443223443,444.8351648351648,0.025330,0.070496,1.338867,11.394653,17.346191,22.064056,325567.765568,120942783.882784,61224468.864469,80.861359,1,2,1,1,4,40.000000
2025-11-11 12:46:42.373,,,,,,,,,,,,,,,,,,,,,,,,,,,,,,,,,,,,,,,,,,/muse/elements/blink
2025-11-11 12:46:43.059,,,,,,,,,,,,,,,,,,,,,,,,,,,,,,,,,,,,,,,,,,/muse/elements/blink
2025-11-11 12:46:43.135,0.2638427243089964,0.1138905583955701,1.001420090049754,0,0.1991735688692299,0.2425316701636987,0.7013560910667879,0,0.4224860838076124,0.337566824110845,0.5097638978503635,0,0.5346565895014206,0.04932191002542746,-0.05787694386002505,0,0.2595106964355283,-0.4429104125109493,-0.4153746586574747,0,824.3956043956044,788.1318681318681,773.2234432234433,0,551.2087912087912,0.161072,0.098938,0.963013,10.497437,-6.011353,32.494202,351355.311355,120963736.263736,61228498.168498,84.756561,1,2,1,1,4,40.000000
2025-11-11 12:46:44.135,0.2638427243089964,0.8437543564560739,1.476025261541524,0,0.1991735688692299,0.6368995331758459,0.9894966990154535,0,0.4224860838076124,0.4544435278919103,0.5404980368543514,0,0.5346565895014206,0.06116414516913284,-0.07019951147185759,0,0.2595106964355283,-0.3750610696292373,-0.3861022612162682,0,822.7838827838829,798.6080586080586,792.5641025641025,1365.531135531136,677.7289377289377,0.094604,-0.136658,0.951050,3.783264,11.790924,28.524017,303003.663004,120858168.498168,61192234.432234,92.918480,1,2,1,1,4,40.000000
2025-11-11 12:46:45.040,,,,,,,,,,,,,,,,,,,,,,,,,,,,,,,,,,,,,,,,,,/muse/elements/blink
2025-11-11 12:46:45.136,0.2638427243089964,0.9760189854400584,1.476025261541524,0,0.1991735688692299,0.5875144090001401,0.9894966990154535,0,0.4224860838076124,0.4946380563786897,0.5404980368543514,0,0.5346565895014206,0.04023721350355931,-0.07019951147185759,0,0.2595106964355283,-0.1646436949909536,-0.3861022612162682,0,789.7435897435897,791.7582417582418,792.1611721611722,1566.996336996337,606.4102564102565,0.061218,0.005859,0.865906,21.346283,-1.128998,64.726715,303809.523810,120714725.274725,61149523.809524,92.918480,1,2,1,1,4,40.000000
2025-11-11 12:46:46.135,0.2638427243089964,1.140727472465529,1.016800571064066,0,0.1991735688692299,0.5783495235176274,0.6936226796367521,0,0.4224860838076124,0.4612346924103525,0.4007564428610698,0,0.5346565895014206,-0.03679732072016111,0.1011979690043878,0,0.2595106964355283,-0.2603027444429356,-0.3903372410120595,0,834.0659340659341,801.8315018315019,796.996336996337,911.0256410256411,647.5091575091575,0.104492,0.012573,0.997559,-1.914062,-2.482300,36.000824,307032.967033,120516483.516484,61085860.805861,92.918480,1,2,1,1,4,40.000000
2025-11-11 12:46:46.340,,,,,,,,,,,,,,,,,,,,,,,,,,,,,,,,,,,,,,,,,,/muse/elements/blink
2025-11-11 12:46:47.144,0.2638427243089964,0.768179694835499,1.016800571064066,0,0.1991735688692299,0.3337537584218581,0.6936226796367521,0,0.4224860838076124,0.4101868938553684,0.4007564428610698,0,0.5346565895014206,0.1761964306256215,0.1011979690043878,0,0.2595106964355283,-0.2487178850372446,-0.3903372410120595,0,916.6666666666667,776.4468864468864,767.1794871794872,1098.388278388278,1060.10989010989,-0.029297,-0.050110,1.298767,11.544189,14.512482,6.385193,306227.106227,120551135.531136,61081831.501832,111.617325,1,2,1,1,4,40.000000
2025-11-11 12:46:47.239,,,,,,,,,,,,,,,,,,,,,,,,,,,,,,,,,,,,,,,,,,/muse/elements/blink
2025-11-11 12:46:48.145,0.2638427243089964,0.3893994770711864,1.016800571064066,0,0.1991735688692299,-0.1377426920975198,0.6936226796367521,0,0.4224860838076124,-0.1064735756288067,0.4007564428610698,0,0.5346565895014206,0.3379601882763424,0.1011979690043878,0,0.2595106964355283,-0.1644371913140109,-0.3903372410120595,0,811.9047619047619,802.2344322344322,788.1318681318681,846.959706959707,575.7875457875458,0.106201,-0.098511,0.996582,-9.443207,-14.116211,7.020721,310256.410256,120575311.355311,61155164.835165,106.390572,1,2,1,1,2,40.000000
2025-11-11 12:46:48.689,,,,,,,,,,,,,,,,,,,,,,,,,,,,,,,,,,,,,,,,,,/muse/elements/blink
2025-11-11 12:46:49.143,0.2638427243089964,0.9321294763168263,1.272763119535013,0,0.1991735688692299,0.4588237969310409,0.9184316797753623,0,0.4224860838076124,0.5487907946295006,0.7460287392370859,0,0.5346565895014206,-0.09028793892763785,0.08295604442638188,0,0.2595106964355283,-0.2210718123188031,-0.3810919443292638,0,811.0989010989011,798.2051282051282,806.6666666666667,865.8974358974359,658.7912087912088,0.215698,0.020813,0.885986,-5.181427,-9.420776,-9.697418,310256.410256,120983076.923077,61329230.769231,107.103798,1,2,1,1,2,40.000000
2025-11-11 12:46:49.583,,,,,,,,,,,,,,,,,,,,,,,,,,,,,,,,,,,,,,,,,,/muse/elements/blink
2025-11-11 12:46:49.988,,,,,,,,,,,,,,,,,,,,,,,,,,,,,,,,,,,,,,,,,,/muse/elements/blink
2025-11-11 12:46:50.135,0.2638427243089964,0.9981367808474998,1.466349780511294,0,0.1991735688692299,0.5082837546072002,1.142386502297703,0,0.4224860838076124,0.5487907946295006,0.7460287392370859,0,0.5346565895014206,-0.05542972863778747,0.2223641840106156,0,0.2595106964355283,-0.2239212404276071,-0.3035331128575916,0,777.2527472527473,805.4578754578755,771.2087912087912,1622.197802197802,677.7289377289377,0.104980,-0.047974,0.908508,-16.905060,6.512299,-72.913818,306227.106227,120870256.410256,61216410.256410,105.049126,1,2,1,1,2,40.000000
2025-11-11 12:46:51.135,0.2638427243089964,1.011482600109388,1.466349780511294,0,0.1991735688692299,0.5318534117286124,1.142386502297703,0,0.4224860838076124,0.454964824464445,0.7460287392370859,0,0.5346565895014206,-0.05805449085435308,0.2223641840106156,0,0.2595106964355283,-0.1935463809933679,-0.3035331128575916,0,796.5934065934066,783.6996336996338,823.1868131868132,847.3626373626374,730.5128205128206,0.103577,0.068481,0.959045,2.228088,0.590668,-33.331604,302197.802198,120858974.358974,61218827.838828,105.049126,1,2,1,1,4,40.000000
2025-11-11 12:46:51.606,,,,,,,,,,,,,,,,,,,,,,,,,,,,,,,,,,,,,,,,,,/muse/elements/blink
2025-11-11 12:46:52.135,1.78241086090896,1.104381321181994,1.466349780511294,0,1.647160302563963,0.6761303363314861,1.142386502297703,0,1.471071401735869,0.5890938909040798,0.7460287392370859,0,1.157367411524728,0.03637528098523634,0.2223641840106156,0,0.7024084746096907,-0.1789413854693012,-0.3035331128575916,0,811.0989010989011,799.4139194139194,789.7435897435897,850.5860805860806,597.5457875457876,0.162354,0.056152,0.922913,-14.811554,20.800476,-36.875610,303003.663004,121065274.725275,61333260.073260,105.049126,1,1,1,1,2,40.000000
2025-11-11 12:46:52.225,,,,,,,,,,,,,,,,,,,,,,,,,,,,,,,,,,,,,,,,,,/muse/elements/blink
2025-11-11 12:46:52.629,,,,,,,,,,,,,,,,,,,,,,,,,,,,,,,,,,,,,,,,,,/muse/elements/blink
2025-11-11 12:46:53.135,1.846751717301309,0.9560377519444084,1.466349780511294,0,1.630747998080471,0.443668161999078,1.142386502297703,0,1.42709259436014,0.4847305333051621,0.7460287392370859,0,1.173043510777808,-0.01333158272630579,0.2223641840106156,0,0.7131071727114076,-0.4401070989954305,-0.3035331128575916,0,716.8131868131868,800.2197802197802,790.1465201465202,1018.608058608059,660.4029304029305,0.253113,0.111023,0.954895,-3.043060,-15.402222,-45.847778,305421.245421,121063663.003663,61318754.578755,99.486702,1,1,1,1,2,40.000000
2025-11-11 12:46:53.330,,,,,,,,,,,,,,,,,,,,,,,,,,,,,,,,,,,,,,,,,,/muse/elements/blink
2025-11-11 12:46:53.844,,,,,,,,,,,,,,,,,,,,,,,,,,,,,,,,,,,,,,,,,,/muse/elements/blink
2025-11-11 12:46:54.135,1.846751717301309,0.8212875959795174,1.47110984590535,0,1.630747998080471,0.4356895810298385,1.24131651838283,0,1.42709259436014,0.5749780128031813,1.040032611976102,0,1.173043510777808,-0.05392325488068449,-0.05286748332435124,0,0.7131071727114076,-0.2146388281978909,-0.3771436722207668,0,805.8608058608058,795.3846153846154,809.0842490842491,1052.051282051282,572.1611721611722,0.299561,-0.099915,0.925842,-5.876770,-11.783447,-17.712555,309450.549451,121070109.890110,61368717.948718,101.413681,1,1,1,1,2,40.000000
2025-11-11 12:46:55.054,,,,,,,,,,,,,,,,,,,,,,,,,,,,,,,,,,,,,,,,,,/muse/elements/blink
2025-11-11 12:46:55.135,1.846751717301309,0.4909261653745728,0.9287795478569529,0,1.630747998080471,0.2590023788812734,0.8392282976857125,0,1.42709259436014,0.2971620445489991,0.6309845651633158,0,1.173043510777808,-0.08729883425610079,-0.1278893474522461,0,0.7131071727114076,-0.2077078161854417,-0.387159809624096,0,849.7802197802198,789.3406593406594,789.3406593406594,851.3919413919414,642.6739926739926,0.148193,-0.060791,0.920898,0.328979,4.568329,22.153778,319120.879121,120750183.150183,61150329.670330,102.095039,1,2,1,1,4,40.000000
2025-11-11 12:46:56.135,1.846751717301309,0.6409592489996534,0.6681595500887745,0,1.630747998080471,0.2973125846185761,0.5859917776676949,0,1.42709259436014,-0.001397951900666161,0.3082222099746287,0,1.173043510777808,-0.1111702544205493,-0.166783857849396,0,0.7131071727114076,-0.30013922905088,-0.3643500602303983,0,793.7728937728938,797.8021978021978,801.4285714285714,777.2527472527473,722.4542124542124,0.005188,0.107300,0.930481,7.813263,5.622559,33.256836,334432.234432,120657509.157509,61085860.805861,102.095039,1,2,1,1,2,40.000000
2025-11-11 12:46:56.181,,,,,,,,,,,,,,,,,,,,,,,,,,,,,,,,,,,,,,,,,,/muse/elements/blink
2025-11-11 12:46:57.135,1.846751717301309,1.165796875716914,1.659849882326531,0,1.630747998080471,0.6319066005929214,1.431735787367334,0,1.42709259436014,0.635577989023973,0.761134125288343,0,1.173043510777808,0.01988088911301313,0.3288294024751532,0,0.7131071727114076,-0.469087177733899,-0.6398645782710033,0,808.2783882783883,799.0109890109891,801.8315018315019,834.0659340659341,644.2857142857143,0.167297,0.072693,0.947388,19.305115,11.648865,29.578247,316703.296703,120784835.164835,61129377.289377,102.095039,1,2,1,1,2,40.000000
2025-11-11 12:46:57.819,,,,,,,,,,,,,,,,,,,,,,,,,,,,,,,,,,,,,,,,,,/muse/elements/blink
2025-11-11 12:46:58.135,1.846751717301309,0.8716422754591867,1.438369537904457,0,1.630747998080471,0.3889352212283043,1.113215788846932,0,1.42709259436014,0.555836055761288,0.7977881373614942,0,1.173043510777808,-0.032535613461735,0.1956860485649289,0,0.7131071727114076,-0.3602679027267397,-0.5333868278593364,0,795.3846153846154,806.6666666666667,790.1465201465202,805.8608058608058,753.4798534798535,0.162109,-0.122314,0.968140,-5.764618,-33.526001,45.586090,303809.523810,120935531.135531,61166446.886447,102.095039,1,2,1,1,2,40.000000
2025-11-11 12:46:58.822,,,,,,,,,,,,,,,,,,,,,,,,,,,,,,,,,,,,,,,,,,/muse/elements/blink
2025-11-11 12:46:59.135,1.846751717301309,0.5227326718469467,1.230036605398585,0,1.630747998080471,-0.1057142061116068,0.8080231382558198,0,1.42709259436014,0.2569311615790423,0.5266737371469915,0,1.173043510777808,-0.03934539277122619,0.1511618126381934,0,0.7131071727114076,-0.3718405174617977,-0.2954911868715442,0,809.4871794871796,789.7435897435897,786.9230769230769,877.985347985348,537.1062271062272,0.160645,-0.003235,0.918884,3.529053,16.920013,47.776794,303809.523810,120840439.560440,61161611.721612,105.685402,1,2,1,1,2,40.000000
2025-11-11 12:46:59.226,,,,,,,,,,,,,,,,,,,,,,,,,,,,,,,,,,,,,,,,,,/muse/elements/blink
2025-11-11 12:46:59.418,,,,,,,,,,,,,,,,,,,,,,,,,,,,,,,,,,,,,,,,,,/muse/elements/blink
2025-11-11 12:46:59.845,,,,,,,,,,,,,,,,,,,,,,,,,,,,,,,,,,,,,,,,,,/muse/elements/blink
2025-11-11 12:47:00.134,1.846751717301309,1.205049983429046,1.355338067019009,0,1.630747998080471,0.8968538155723125,0.9857163931112696,0,1.42709259436014,0.4040709312415659,0.4762682222319373,0,1.173043510777808,0.01438754865568105,-0.04634372334459086,0,0.7131071727114076,-0.3098761977467063,-0.2843595755600848,0,800.6227106227107,804.6520146520147,795.7875457875458,842.1245421245421,772.014652014652,-0.066162,0.212280,1.009521,10.243225,-3.043060,-0.358887,311062.271062,120382710.622711,60861025.641026,117.467171,1,2,1,1,2,40.000000
2025-11-11 12:47:00.270,,,,,,,,,,,,,,,,,,,,,,,,,,,,,,,,,,,,,,,,,,/muse/elements/blink
2025-11-11 12:47:00.954,,,,,,,,,,,,,,,,,,,,,,,,,,,,,,,,,,,,,,,,,,/muse/elements/blink
2025-11-11 12:47:01.135,1.846751717301309,1.192444877633813,1.355338067019009,0,1.630747998080471,1.070598353496083,0.9857163931112696,0,1.42709259436014,0.8490773181966615,0.4762682222319373,0,1.173043510777808,0.08548831850983749,-0.04634372334459086,0,0.7131071727114076,-0.3269586117939379,-0.2843595755600848,0,789.3406593406594,801.4285714285714,786.5201465201466,862.6739926739926,681.3553113553114,0.057251,-0.099426,0.956177,-8.598328,-2.766418,14.833984,307838.827839,120626080.586081,61136630.036630,126.438835,1,2,1,1,4,40.000000
2025-11-11 12:47:01.485,,,,,,,,,,,,,,,,,,,,,,,,,,,,,,,,,,,,,,,,,,/muse/elements/blink
2025-11-11 12:47:01.955,,,,,,,,,,,,,,,,,,,,,,,,,,,,,,,,,,,,,,,,,,/muse/elements/blink
2025-11-11 12:47:02.135,1.755662881213832,0.6750127471023772,1.021409371421363,0,1.938283331024039,0.7291466674711338,0.6477183819127549,0,1.536420712071214,0.8478876882478308,1.010252433828651,0,0.9772022763153501,0.06757797965397405,-0.07636815368168295,0,0.4720047764750218,-0.4140907801705209,-0.3596364869080467,0,846.959706959707,805.8608058608058,808.6813186813187,1361.904761904762,633.0036630036631,0.020508,0.010864,1.059998,-6.205750,15.230255,-17.936859,312673.992674,120838021.978022,61187399.267399,142.974045,1,1,1,1,4,40.000000
2025-11-11 12:47:02.469,,,,,,,,,,,,,,,,,,,,,,,,,,,,,,,,,,,,,,,,,,/muse/elements/blink
2025-11-11 12:47:02.875,,,,,,,,,,,,,,,,,,,,,,,,,,,,,,,,,,,,,,,,,,/muse/elements/blink
2025-11-11 12:47:03.140,1.755662881213832,0.8330749585898988,1.367124787665017,0,1.938283331024039,0.4333726878764451,0.8949007550781658,0,1.536420712071214,0.4978170923786633,0.6531304078706347,0,0.9772022763153501,-0.00724956305017619,-0.07383265214589659,0,0.4720047764750218,-0.369620495473423,-0.5643872474773628,0,803.4432234432235,796.996336996337,806.6666666666667,812.7106227106227,588.6813186813187,0.143188,0.073364,0.940735,0.598145,-10.153503,-37.982178,325567.765568,120985494.505495,61240586.080586,143.580841,1,1,1,1,2,40.000000
2025-11-11 12:47:04.134,1.755662881213832,0.6611025548030813,1.278195219721284,0,1.938283331024039,0.2461336674320674,0.8279156102982005,0,1.536420712071214,0.4964232677533789,0.6438990472852795,0,0.9772022763153501,-0.03294051321806245,0.02590181873744425,0,0.4720047764750218,-0.2913474510541113,-0.5909962001149346,0,833.2600732600733,797.8021978021978,797.8021978021978,959.3772893772895,722.0512820512821,0.139587,-0.114563,0.952393,-2.243042,18.363037,-48.950653,308644.688645,121168424.908425,61308278.388278,143.580841,1,1,1,1,4,40.000000
2025-11-11 12:47:04.219,,,,,,,,,,,,,,,,,,,,,,,,,,,,,,,,,,,,,,,,,,/muse/elements/blink
2025-11-11 12:47:04.539,,,,,,,,,,,,,,,,,,,,,,,,,,,,,,,,,,,,,,,,,,/muse/elements/blink
2025-11-11 12:47:05.008,,,,,,,,,,,,,,,,,,,,,,,,,,,,,,,,,,,,,,,,,,/muse/elements/blink
2025-11-11 12:47:05.136,1.755662881213832,1.181422050976753,1.171609180006679,0,1.938283331024039,1.058076996474294,0.6712534723556463,0,1.536420712071214,1.007084784536094,0.5610207235415555,0,0.9772022763153501,0.1190258529959519,0.01364241668338104,0,0.4720047764750218,-0.2700001536691813,-0.4630493235406675,0,816.7399267399268,793.3699633699634,812.3076923076924,909.0109890109891,888.8644688644689,0.005920,-0.066895,0.964478,-15.948029,-30.139008,-64.659424,303809.523810,121259487.179487,61302637.362637,143.580841,1,2,1,1,4,40.000000
2025-11-11 12:47:05.328,,,,,,,,,,,,,,,,,,,,,,,,,,,,,,,,,,,,,,,,,,/muse/elements/blink
2025-11-11 12:47:06.116,,,,,,,,,,,,,,,,,,,,,,,,,,,,,,,,,,,,,,,,,,/muse/elements/blink
2025-11-11 12:47:06.135,1.755662881213832,1.524463436737598,1.171609180006679,0,1.938283331024039,1.424297231608017,0.6712534723556463,0,1.536420712071214,1.005727158078334,0.5610207235415555,0,0.9772022763153501,0.368934042962638,0.01364241668338104,0,0.4720047764750218,-0.2361596932511462,-0.4630493235406675,0,784.1025641025641,787.7289377289378,820.3663003663004,404.1391941391942,738.1684981684982,0.165405,0.119873,0.954529,-2.848663,2.646790,-52.113342,303809.523810,121511721.611722,61418681.318681,143.580841,1,2,1,1,2,40.000000
2025-11-11 12:47:07.143,1.755662881213832,1.313707937111069,1.171609180006679,0,1.938283331024039,0.8766390658674237,0.6712534723556463,0,1.536420712071214,0.5095948425333681,0.5610207235415555,0,0.9772022763153501,0.1220538999811275,0.01364241668338104,0,0.4720047764750218,-0.1925632824368031,-0.4630493235406675,0,806.2637362637363,793.3699633699634,815.5311355311355,972.2710622710623,817.948717948718,0.112427,-0.011475,1.387878,-3.940277,17.353668,-41.384125,307032.967033,121128937.728938,61201098.901099,143.580841,1,2,1,1,2,40.000000
2025-11-11 12:47:07.261,,,,,,,,,,,,,,,,,,,,,,,,,,,,,,,,,,,,,,,,,,/muse/elements/blink
2025-11-11 12:47:08.052,,,,,,,,,,,,,,,,,,,,,,,,,,,,,,,,,,,,,,,,,,/muse/elements/blink
2025-11-11 12:47:08.135,1.755662881213832,0.9131591799810425,1.021525401247865,0,1.938283331024039,0.4245595595598914,0.753189633600474,0,1.536420712071214,0.3287321547549645,0.4831474590933265,0,0.9772022763153501,0.06032858257800716,0.07535978958033898,0,0.4720047764750218,-0.2058116956550453,-0.399494488239725,0,873.1501831501831,784.5054945054945,800.6227106227107,43.91941391941392,505.2747252747253,0.100464,-0.001770,0.990112,1.293488,-16.733093,10.639496,312673.992674,121055604.395604,61221245.421245,143.580841,1,2,1,1,2,40.000000
2025-11-11 12:47:09.134,1.755662881213832,0.3863501735058867,1.118734319820169,0,1.938283331024039,0.2757681290898174,0.7263141417938203,0,1.536420712071214,0.03873726476262439,0.5477176861505293,0,0.9772022763153501,0.09621258829738097,0.1292565374012221,0,0.4720047764750218,-0.1403924019448061,-0.2874986355080422,0,820.7692307692308,806.2637362637363,811.0989010989011,971.8681318681319,977.5091575091575,0.195557,0.132874,0.932556,2.392578,1.211243,28.651123,315897.435897,121265934.065934,61446886.446886,143.580841,1,2,1,1,4,40.000000
2025-11-11 12:47:09.266,,,,,,,,,,,,,,,,,,,,,,,,,,,,,,,,,,,,,,,,,,/muse/elements/blink
2025-11-11 12:47:10.135,1.755662881213832,0.5551290656521987,1.018754168870664,0,1.938283331024039,0.2489042143883993,0.6789361744350486,0,1.536420712071214,0.2640784345458572,0.422250648322759,0,0.9772022763153501,-0.1024323927657612,0.03584824345824141,0,0.4720047764750218,-0.2380931662203798,-0.6212139041260389,0,724.8717948717949,789.7435897435897,829.6336996336996,801.025641025641,793.3699633699634,0.224670,0.031128,0.970276,17.959290,4.007568,36.658783,326373.626374,121085421.245421,61348571.428571,143.580841,1,2,1,1,4,40.000000
2025-11-11 12:47:10.287,,,,,,,,,,,,,,,,,,,,,,,,,,,,,,,,,,,,,,,,,,/muse/elements/blink
2025-11-11 12:47:10.800,,,,,,,,,,,,,,,,,,,,,,,,,,,,,,,,,,,,,,,,,,/muse/elements/blink
2025-11-11 12:47:11.135,1.841338509530669,0.8088042846503234,1.170330392285499,0,1.790895650067848,0.4437725049559457,0.8089517668080364,0,1.227168406982023,0.3329516480273189,0.4172868136309149,0,0.7918397084506129,-0.2443227572862303,0.06940119351251514,0,0.8316508413837592,-0.3214183093342303,-0.7531615535844205,0,816.7399267399268,811.5018315018315,775.6410256410256,1240.622710622711,610.4395604395604,0.151733,-0.078003,0.950073,0.157013,-6.048737,52.038574,303003.663004,121091062.271062,61248644.688645,143.580841,1,1,1,1,4,40.000000
2025-11-11 12:47:11.591,,,,,,,,,,,,,,,,,,,,,,,,,,,,,,,,,,,,,,,,,,/muse/elements/blink
2025-11-11 12:47:12.038,,,,,,,,,,,,,,,,,,,,,,,,,,,,,,,,,,,,,,,,,,/muse/elements/blink
2025-11-11 12:47:12.137,1.893402504728006,0.8019581058001541,1.528633128019113,0,1.917119120956194,0.6529246516981587,1.19229666184141,0,1.466975899071573,0.429473939548989,0.7276101439727616,0,0.813208194853335,-0.1030599282396723,0.2377531788414872,0,0.8014137546713879,-0.595973430153947,-0.4103700503476967,0,799.4139194139194,788.5347985347986,795.3846153846154,886.8498168498169,1056.886446886447,-0.218933,0.621887,1.423645,55.440521,88.570251,93.990936,303003.663004,120814652.014652,61017362.637363,130.809967,1,1,1,1,2,40.000000
2025-11-11 12:47:12.209,,,,,,,,,,,,,,,,,,,,,,,,,,,,,,,,,,,,,,,,,,/muse/elements/blink
2025-11-11 12:47:13.135,1.893402504728006,1.181514180849728,1.551030445872137,0,1.917119120956194,0.8840143091269699,1.214271080270033,0,1.466975899071573,0.6135304165995384,0.7261824700098612,0,0.813208194853335,-0.05341549746311852,0.2051211145023723,0,0.8014137546713879,-0.4864381794188347,-0.4266098241128231,0,795.7875457875458,795.3846153846154,785.7142857142858,618.901098901099,724.8717948717949,0.048462,0.097473,0.999756,-5.173950,-12.134857,29.862366,310256.410256,120929890.109890,61042344.322344,115.091362,1,1,1,1,2,40.000000
2025-11-11 12:47:13.678,,,,,,,,,,,,,,,,,,,,,,,,,,,,,,,,,,,,,,,,,,/muse/elements/blink
2025-11-11 12:47:14.135,1.893402504728006,1.015538406907405,1.205344598461469,0,1.917119120956194,0.6091297367346414,0.2357289663057451,0,1.466975899071573,0.6107164602407953,0.3137604892329205,0,0.813208194853335,0.03441279497250283,-0.1024788333628224,0,0.8014137546713879,-0.1692752507103208,-0.4633219737976776,0,787.7289377289378,797.3992673992674,792.1611721611722,1121.355311355311,530.6593406593407,0.054504,-0.149658,0.975403,-6.714172,0.598145,17.114410,307838.827839,121140219.780220,61146300.366300,114.711449,1,2,1,1,4,40.000000
2025-11-11 12:47:14.151,,,,,,,,,,,,,,,,,,,,,,,,,,,,,,,,,,,,,,,,,,/muse/elements/blink
2025-11-11 12:47:14.557,,,,,,,,,,,,,,,,,,,,,,,,,,,,,,,,,,,,,,,,,,/muse/elements/blink
2025-11-11 12:47:15.067,,,,,,,,,,,,,,,,,,,,,,,,,,,,,,,,,,,,,,,,,,/muse/elements/blink
2025-11-11 12:47:15.139,1.893402504728006,0.6328202932600181,1.023273389863602,0,1.917119120956194,0.05125403833951216,0.134175112947392,0,1.466975899071573,0.3917213012987048,0.3137604892329205,0,0.813208194853335,-0.05206623528295454,-0.06344908397936164,0,0.8014137546713879,-0.3847710616199067,-0.472383807318335,0,854.2124542124542,791.3553113553114,804.6520146520147,920.2930402930403,732.1245421245421,0.206665,-0.042786,0.757507,-10.841370,-6.714172,-6.654358,312673.992674,121438388.278388,61317948.717949,110.264557,1,2,1,1,2,40.000000
2025-11-11 12:47:15.364,,,,,,,,,,,,,,,,,,,,,,,,,,,,,,,,,,,,,,,,,,/muse/elements/blink
2025-11-11 12:47:15.958,,,,,,,,,,,,,,,,,,,,,,,,,,,,,,,,,,,,,,,,,,/muse/elements/blink
2025-11-11 12:47:16.135,1.893402504728006,0.8256851832210257,1.137638103666774,0,1.917119120956194,0.5189284252971017,0.8659362000098458,0,1.466975899071573,0.5182383778057844,0.8228615517684131,0,0.813208194853335,0.06280475688932977,-0.03095420290729417,0,0.8014137546713879,-0.4262120001284394,-0.4106089929012788,0,756.3003663003664,803.4432234432235,770.4029304029305,730.1098901098901,891.6849816849817,0.147095,0.183594,0.923157,-6.788940,-18.063965,-50.326385,309450.549451,121186959.706960,61292161.172161,110.264557,1,2,1,1,2,40.000000
2025-11-11 12:47:16.404,,,,,,,,,,,,,,,,,,,,,,,,,,,,,,,,,,,,,,,,,,/muse/elements/blink
2025-11-11 12:47:17.135,1.893402504728006,0.7245728804770002,1.499772816557499,0,1.917119120956194,0.3595832134441413,1.236590258589811,0,1.466975899071573,0.3895436568139261,0.9360863118151728,0,0.813208194853335,-0.02434693928465375,0.1503420138949266,0,0.8014137546713879,-0.4197943026599488,-0.3290054478086471,0,803.4432234432235,800.2197802197802,796.5934065934066,901.7582417582418,604.7985347985348,0.212708,-0.053162,0.997986,-4.702911,25.099640,-56.838684,307032.967033,121228058.608059,61325201.465201,102.638199,1,2,1,1,2,40.000000
2025-11-11 12:47:17.190,,,,,,,,,,,,,,,,,,,,,,,,,,,,,,,,,,,,,,,,,,/muse/elements/blink
2025-11-11 12:47:17.531,,,,,,,,,,,,,,,,,,,,,,,,,,,,,,,,,,,,,,,,,,/muse/elements/blink
2025-11-11 12:47:17.787,,,,,,,,,,,,,,,,,,,,,,,,,,,,,,,,,,,,,,,,,,/muse/elements/blink
2025-11-11 12:47:18.140,1.893402504728006,0.6374224576330362,1.713733979258957,0,1.917119120956194,0.4725776822405019,1.264521233248608,0,1.466975899071573,0.1967388937068096,0.987813686948694,0,0.813208194853335,-0.2487020324187813,0.02814737807096386,0,0.8014137546713879,-0.3666196756910368,-0.4855362105874419,0,840.5128205128206,791.7582417582418,817.948717948718,902.1611721611722,718.021978021978,0.036255,0.025574,0.987488,-3.880463,9.555359,-21.615448,302197.802198,120740512.820513,61102783.882784,96.172150,1,2,1,1,2,40.000000
2025-11-11 12:47:18.213,,,,,,,,,,,,,,,,,,,,,,,,,,,,,,,,,,,,,,,,,,/muse/elements/blink
2025-11-11 12:47:19.135,1.893402504728006,0.6894249823486616,1.68200564361425,0,1.917119120956194,0.5631187406499648,1.220833733886411,0,1.466975899071573,-0.03333197850901681,0.9159384067284143,0,0.813208194853335,-0.3075813026848485,0.02021154923430846,0,0.8014137546713879,-0.3140926216756186,-0.4592808102223779,0,794.981684981685,796.1904761904763,808.2783882783883,803.8461538461539,869.5238095238095,0.205383,0.137512,0.990540,-6.190796,4.022522,-38.378448,303003.663004,121199853.479853,61305054.945055,95.210777,1,2,1,1,2,40.000000
2025-11-11 12:47:19.149,,,,,,,,,,,,,,,,,,,,,,,,,,,,,,,,,,,,,,,,,,/muse/elements/blink
2025-11-11 12:47:19.534,,,,,,,,,,,,,,,,,,,,,,,,,,,,,,,,,,,,,,,,,,/muse/elements/blink
2025-11-11 12:47:20.135,1.893402504728006,0.8885250520268987,1.337169252921181,0,1.917119120956194,0.7382584546272057,1.070076325780683,0,1.466975899071573,0.6033140757090798,0.8184978514373475,0,0.813208194853335,-0.08792006953330526,0.1034197612687476,0,0.8014137546713879,-0.4954639511695156,-0.3779588508230343,0,763.956043956044,800.2197802197802,811.5018315018315,833.2600732600733,1077.032967032967,0.143066,0.095947,1.004333,-5.525360,-15.962982,-51.089020,305421.245421,121367472.527473,61305054.945055,100.670235,1,2,1,1,2,40.000000
2025-11-11 12:47:20.755,,,,,,,,,,,,,,,,,,,,,,,,,,,,,,,,,,,,,,,,,,/muse/elements/blink
2025-11-11 12:47:21.076,,,,,,,,,,,,,,,,,,,,,,,,,,,,,,,,,,,,,,,,,,/muse/elements/blink
2025-11-11 12:47:21.134,1.893402504728006,0.6411754564960112,1.134645943449368,0,1.917119120956194,0.4986932809265734,0.9699492021599976,0,1.466975899071573,0.5298487123128766,0.9495944366823671,0,0.813208194853335,-0.02466088236628159,0.1556799289957678,0,0.8014137546713879,-0.3476198826487551,-0.4056460282223922,0,771.6117216117216,779.6703296703297,779.6703296703297,858.6446886446887,696.2637362637363,0.179932,0.008728,0.930725,-6.594543,-11.312408,9.772186,311062.271062,121765567.765568,61509743.589744,100.882095,1,2,1,1,2,40.000000
2025-11-11 12:47:21.287,,,,,,,,,,,,,,,,,,,,,,,,,,,,,,,,,,,,,,,,,,/muse/elements/blink
2025-11-11 12:47:22.135,1.893402504728006,0.9781573113213253,1.05180350271666,0,1.917119120956194,0.750319662428843,0.5907854381779604,0,1.466975899071573,0.6576474196363197,0.8065692674674987,0,0.813208194853335,0.01607696185776171,-0.02934994454943099,0,0.8014137546713879,-0.3231095077155595,-0.232213659913497,0,695.0549450549451,786.1172161172161,836.8864468864469,625.7509157509157,621.7216117216118,0.142822,0.100159,0.988953,14.684448,14.048920,46.737518,320732.600733,121819560.439560,61520219.780220,100.882095,1,2,1,1,4,40.000000
2025-11-11 12:47:22.289,,,,,,,,,,,,,,,,,,,,,,,,,,,,,,,,,,,,,,,,,,/muse/elements/blink
2025-11-11 12:47:23.135,1.893402504728006,0.7636813431079637,1.389602415654324,0,1.917119120956194,0.07742472918155624,0.774756376035646,0,1.466975899071573,-0.008698545036000798,0.4511881249738369,0,0.813208194853335,0.05881581224682347,-0.02773754770106839,0,0.8014137546713879,-0.2438248713011608,-0.3499644954314325,0,831.2454212454213,807.8754578754579,794.5787545787546,844.1391941391942,917.4725274725275,0.200195,-0.007996,0.947632,-5.824432,-23.649139,24.209900,348131.868132,121645494.505495,61454945.054945,100.252022,1,2,1,1,2,40.000000
2025-11-11 12:47:23.607,,,,,,,,,,,,,,,,,,,,,,,,,,,,,,,,,,,,,,,,,,/muse/elements/blink
2025-11-11 12:47:24.036,,,,,,,,,,,,,,,,,,,,,,,,,,,,,,,,,,,,,,,,,,/muse/elements/blink
2025-11-11 12:47:24.134,1.893402504728006,0.5515268745847105,1.315852981545138,0,1.917119120956194,0.2409273766894645,0.7276071020797226,0,1.466975899071573,0.1599640844634507,0.5187525879255293,0,0.813208194853335,0.002925573152822038,0.02107201857414523,0,0.8014137546713879,-0.3962082141798206,-0.2773489547385564,0,830.0366300366301,801.8315018315019,796.5934065934066,1237.802197802198,732.1245421245421,0.129700,-0.003906,1.005127,18.385468,-0.949554,22.864075,303003.663004,121093479.853480,61246227.106227,100.252022,1,2,1,1,4,40.000000
2025-11-11 12:47:24.504,,,,,,,,,,,,,,,,,,,,,,,,,,,,,,,,,,,,,,,,,,/muse/elements/blink
2025-11-11 12:47:25.135,1.893402504728006,0.5875409305745145,0.9810875211884409,0,1.917119120956194,0.4536156107557804,0.4957864988488292,0,1.466975899071573,0.39135467796166,0.4477637848437876,0,0.813208194853335,-0.08114842099209854,0.07699407638760915,0,0.8014137546713879,-0.3192781552452676,-0.2892668367760589,0,844.9450549450549,797.3992673992674,796.996336996337,799.4139194139194,537.1062271062272,0.094360,-0.095642,0.946411,1.510315,-3.790741,72.906342,302197.802198,120672820.512821,61048791.208791,100.252022,1,2,1,1,4,40.000000
2025-11-11 12:47:25.254,,,,,,,,,,,,,,,,,,,,,,,,,,,,,,,,,,,,,,,,,,/muse/elements/blink
2025-11-11 12:47:26.144,1.893402504728006,0.9187422560399826,1.750996655937033,0,1.917119120956194,0.7344695045141437,1.267813286664267,0,1.466975899071573,0.5486559544691021,0.8821688688226372,0,0.813208194853335,-0.03640310996569142,-0.06620073434785423,0,0.8014137546713879,-0.3128763838494777,-0.1846939249172555,0,788.5347985347986,803.4432234432235,783.2967032967033,814.7252747252747,931.978021978022,0.127747,0.037659,0.968079,1.772003,-2.138367,41.937408,307032.967033,120793699.633700,61148717.948718,100.252022,1,2,1,1,2,40.000000
2025-11-11 12:47:26.473,,,,,,,,,,,,,,,,,,,,,,,,,,,,,,,,,,,,,,,,,,/muse/elements/blink
2025-11-11 12:47:27.143,1.893402504728006,0.6148574888912642,1.497157046514937,0,1.917119120956194,0.354370822897993,1.032458698345309,0,1.466975899071573,0.3626251422467046,0.8459994471332206,0,0.813208194853335,0.02254511920039344,-0.1875498759927542,0,0.8014137546713879,-0.3885645652702056,-0.3258833295971705,0,786.5201465201466,805.8608058608058,786.1172161172161,848.5714285714286,923.1135531135532,0.243225,0.018311,0.835754,1.405640,-11.910553,16.090088,305421.245421,121404542.124542,61420293.040293,106.889740,1,2,1,1,2,40.000000
2025-11-11 12:47:27.688,,,,,,,,,,,,,,,,,,,,,,,,,,,,,,,,,,,,,,,,,,/muse/elements/blink
2025-11-11 12:47:27.966,,,,,,,,,,,,,,,,,,,,,,,,,,,,,,,,,,,,,,,,,,/muse/elements/blink
2025-11-11 12:47:28.135,1.773030821346536,0.6216313007470903,1.146714752735598,0,2.018099537002729,0.2442844469235234,0.7044157995492717,0,1.7334356757331,0.5319957768702435,0.4986805644776806,0,0.8475231565984436,-0.04645517796119878,-0.2556725377547281,0,0.4525159316686014,-0.3568335596585808,-0.4938241475514351,0,805.0549450549451,793.7728937728938,783.6996336996338,845.3479853479854,681.7582417582418,0.261841,-0.075500,0.941833,-1.607513,-11.319885,4.157104,307838.827839,121757509.157509,61555677.655678,106.889740,1,1,1,1,2,40.000000
2025-11-11 12:47:28.392,,,,,,,,,,,,,,,,,,,,,,,,,,,,,,,,,,,,,,,,,,/muse/elements/blink
2025-11-11 12:47:28.774,,,,,,,,,,,,,,,,,,,,,,,,,,,,,,,,,,,,,,,,,,/muse/elements/blink
2025-11-11 12:47:29.135,1.773030821346536,0.7901266679880254,1.243823600302568,0,2.018099537002729,0.4520603131796716,0.7345065595136926,0,1.7334356757331,0.4777451230654851,0.4190550850337255,0,0.8475231565984436,0.06279065094269258,-0.1055312769500254,0,0.4525159316686014,-0.2782175289995935,-0.6226368591103935,0,820.3663003663004,801.025641025641,786.5201465201466,841.3186813186813,998.0586080586081,0.276917,0.136475,1.027344,-13.308716,21.779938,-21.353760,301391.941392,122053260.073260,61637069.597070,92.756493,1,1,1,1,2,40.000000
2025-11-11 12:47:29.201,,,,,,,,,,,,,,,,,,,,,,,,,,,,,,,,,,,,,,,,,,/muse/elements/blink
2025-11-11 12:47:29.906,,,,,,,,,,,,,,,,,,,,,,,,,,,,,,,,,,,,,,,,,,/muse/elements/blink
2025-11-11 12:47:30.135,1.773030821346536,0.8145417524275191,1.243823600302568,0,2.018099537002729,0.6208339974158381,0.7345065595136926,0,1.7334356757331,0.4162631294630014,0.4190550850337255,0,0.8475231565984436,0.107568990571056,-0.1055312769500254,0,0.4525159316686014,-0.261116234470931,-0.6226368591103935,0,847.3626373626374,780.8791208791209,799.4139194139194,973.4798534798535,767.1794871794872,0.149475,0.111084,0.932800,-2.056122,0.127106,-65.915527,306227.106227,121879194.139194,61498461.538462,91.570198,1,2,1,1,2,40.000000
2025-11-11 12:47:30.225,,,,,,,,,,,,,,,,,,,,,,,,,,,,,,,,,,,,,,,,,,/muse/elements/blink
2025-11-11 12:47:31.135,1.773030821346536,1.142143619604109,1.578344100513524,0,2.018099537002729,0.9279657731310026,1.193100454132221,0,1.7334356757331,0.4781663392882205,0.5542528659773905,0,0.8475231565984436,-0.03841077326234028,-0.1767538839617324,0,0.4525159316686014,-0.1898468983703396,-0.4310716441752165,0,837.6923076923077,792.967032967033,809.0842490842491,1069.78021978022,743.4065934065934,0.184021,-0.131287,0.916565,-17.248993,13.921814,-44.741211,299780.219780,121831648.351648,61500879.120879,91.570198,1,2,1,1,2,40.000000
2025-11-11 12:47:31.462,,,,,,,,,,,,,,,,,,,,,,,,,,,,,,,,,,,,,,,,,,/muse/elements/blink
2025-11-11 12:47:32.135,1.773030821346536,1.132866266285969,1.529333508328255,0,2.018099537002729,0.6671025644877043,1.152860167330404,0,1.7334356757331,0.4238833330729836,0.6014000371519317,0,0.8475231565984436,-0.2063597949054124,-0.08023125415662596,0,0.4525159316686014,-0.3224266917647712,-0.3098789577750881,0,792.1611721611722,801.4285714285714,798.2051282051282,858.6446886446887,939.2307692307693,0.237976,-0.041138,0.855347,-7.521667,18.041534,-39.769135,301391.941392,121456923.076923,61372747.252747,94.455589,1,2,1,1,2,40.000000
2025-11-11 12:47:32.674,,,,,,,,,,,,,,,,,,,,,,,,,,,,,,,,,,,,,,,,,,/muse/elements/blink
2025-11-11 12:47:33.135,1.773030821346536,1.173160179220762,1.529333508328255,0,2.018099537002729,0.4815243148389659,1.152860167330404,0,1.7334356757331,0.306108451621696,0.6014000371519317,0,0.8475231565984436,0.03308079391610592,-0.08023125415662596,0,0.4525159316686014,-0.3906291037527982,-0.3098789577750881,0,670.4761904761905,824.7985347985348,784.9084249084249,676.9230769230769,619.7069597069598,0.162415,0.176941,0.934021,-1.891632,2.302856,-42.475739,303809.523810,120860586.080586,61147912.087912,91.058144,1,2,1,1,2,40.000000
2025-11-11 12:47:33.653,,,,,,,,,,,,,,,,,,,,,,,,,,,,,,,,,,,,,,,,,,/muse/elements/blink
2025-11-11 12:47:34.135,1.773030821346536,1.207549276124314,1.529333508328255,0,2.018099537002729,0.6702519620583322,1.152860167330404,0,1.7334356757331,0.4543903340960873,0.6014000371519317,0,0.8475231565984436,0.06526127211004622,-0.08023125415662596,0,0.4525159316686014,-0.3699883565180008,-0.3098789577750881,0,853.4065934065934,809.0842490842491,823.992673992674,827.6190476190476,658.3882783882784,0.013855,0.062683,0.927002,-3.977661,-5.869293,-10.482483,310256.410256,120258608.058608,60740952.380952,90.731613,1,2,1,1,2,40.000000
2025-11-11 12:47:34.164,,,,,,,,,,,,,,,,,,,,,,,,,,,,,,,,,,,,,,,,,,/muse/elements/blink
2025-11-11 12:47:34.587,,,,,,,,,,,,,,,,,,,,,,,,,,,,,,,,,,,,,,,,,,/muse/elements/blink
2025-11-11 12:47:35.135,1.773030821346536,1.210539873378708,1.529333508328255,0,2.018099537002729,0.6643067303468428,1.152860167330404,0,1.7334356757331,0.4414843794643061,0.6014000371519317,0,0.8475231565984436,-0.01214388196453432,-0.08023125415662596,0,0.4525159316686014,-0.3426575454161439,-0.3098789577750881,0,813.5164835164835,791.7582417582418,796.1904761904763,788.1318681318681,919.4871794871796,0.215393,-0.072754,0.839050,-4.867401,-15.409698,26.109009,311062.271062,121137802.197802,61218021.978022,90.731613,1,2,1,1,2,40.000000
2025-11-11 12:47:35.182,,,,,,,,,,,,,,,,,,,,,,,,,,,,,,,,,,,,,,,,,,/muse/elements/blink
2025-11-11 12:47:35.907,,,,,,,,,,,,,,,,,,,,,,,,,,,,,,,,,,,,,,,,,,/muse/elements/blink
2025-11-11 12:47:36.135,1.773030821346536,0.5085461824856798,1.147347084163086,0,2.018099537002729,0.09132593323257555,0.5822528702277602,0,1.7334356757331,0.2178706499498236,0.3197693806143588,0,0.8475231565984436,0.01133946406095893,-0.152216299753351,0,0.4525159316686014,-0.108826690027642,-0.7061982867942713,0,674.9084249084249,838.901098901099,817.5457875457876,760.7326007326008,749.047619047619,0.268311,0.061829,0.907715,6.534729,3.050537,25.047302,304615.384615,121444835.164835,61314725.274725,90.731613,1,2,1,1,2,40.000000
2025-11-11 12:47:36.400,,,,,,,,,,,,,,,,,,,,,,,,,,,,,,,,,,,,,,,,,,/muse/elements/blink
2025-11-11 12:47:37.136,1.773030821346536,0.6623450631126664,1.449278497934117,0,2.018099537002729,-0.005435745208670844,0.817950381277556,0,1.7334356757331,0.1761602170557311,0.2504883948593561,0,0.8475231565984436,0.1000604125227589,-0.06823889501331672,0,0.4525159316686014,-0.158840561288298,-0.565486459693906,0,810.2930402930403,792.5641025641025,805.4578754578755,812.3076923076924,687.3992673992674,0.242981,-0.004089,1.114990,13.884430,9.802094,36.755981,305421.245421,121632600.732601,61335677.655678,100.535866,1,2,1,1,2,40.000000
2025-11-11 12:47:37.616,,,,,,,,,,,,,,,,,,,,,,,,,,,,,,,,,,,,,,,,,,/muse/elements/blink
2025-11-11 12:47:38.138,1.773030821346536,0.4833813738893266,1.440216602085411,0,2.018099537002729,0.4170356808218513,0.9480575891516679,0,1.7334356757331,0.5139965763627813,0.7103998666224415,0,0.8475231565984436,-0.09033970137020053,-0.1782226493754396,0,0.4525159316686014,-0.4187963599922042,-0.4133150754218441,0,794.1758241758242,798.2051282051282,783.6996336996338,814.3223443223443,769.5970695970697,0.152588,-0.072510,0.953857,4.553375,-8.912354,49.922638,303809.523810,121456117.216117,61270402.930403,100.535866,1,2,1,1,2,40.000000
2025-11-11 12:47:38.528,,,,,,,,,,,,,,,,,,,,,,,,,,,,,,,,,,,,,,,,,,/muse/elements/blink
2025-11-11 12:47:39.126,,,,,,,,,,,,,,,,,,,,,,,,,,,,,,,,,,,,,,,,,,/muse/elements/blink
2025-11-11 12:47:39.138,1.773030821346536,0.4777492971744629,1.440216602085411,0,2.018099537002729,0.3005808268746749,0.9480575891516679,0,1.7334356757331,0.3805762984012337,0.7103998666224415,0,0.8475231565984436,-0.02614756400699366,-0.1782226493754396,0,0.4525159316686014,-0.4155329862801831,-0.4133150754218441,0,780.0732600732601,808.2783882783883,795.7875457875458,842.1245421245421,687.3992673992674,0.325928,0.137634,0.869873,18.579865,16.030273,80.749512,305421.245421,121303809.523810,61243809.523810,100.535866,1,2,1,1,2,40.000000
2025-11-11 12:47:39.445,,,,,,,,,,,,,,,,,,,,,,,,,,,,,,,,,,,,,,,,,,/muse/elements/blink
2025-11-11 12:47:40.135,1.773030821346536,0.8458710121888421,1.440216602085411,0,2.018099537002729,0.6689059782034584,0.9480575891516679,0,1.7334356757331,0.6275851835046871,0.7103998666224415,0,0.8475231565984436,0.07524232950046927,-0.1782226493754396,0,0.4525159316686014,-0.4061436134521393,-0.4133150754218441,0,807.8754578754579,809.4871794871796,791.7582417582418,840.9157509157509,711.5750915750916,0.153198,-0.003967,0.962341,-10.026398,-23.350067,6.190796,306227.106227,121022564.102564,61172893.772894,103.652763,1,2,1,1,2,40.000000
2025-11-11 12:47:40.165,,,,,,,,,,,,,,,,,,,,,,,,,,,,,,,,,,,,,,,,,,/muse/elements/blink
2025-11-11 12:47:40.674,,,,,,,,,,,,,,,,,,,,,,,,,,,,,,,,,,,,,,,,,,/muse/elements/blink
2025-11-11 12:47:40.951,,,,,,,,,,,,,,,,,,,,,,,,,,,,,,,,,,,,,,,,,,/muse/elements/blink
2025-11-11 12:47:41.135,1.773030821346536,0.8940425610149478,1.440216602085411,0,2.018099537002729,0.6232147572851514,0.9480575891516679,0,1.7334356757331,0.6573981198547659,0.7103998666224415,0,0.8475231565984436,0.07340594614732686,-0.1782226493754396,0,0.4525159316686014,-0.4009361794271293,-0.4133150754218441,0,817.1428571428571,794.981684981685,790.5494505494506,851.7948717948718,893.6996336996338,0.160339,-0.173523,0.919861,-2.033691,1.450500,6.826324,304615.384615,120939560.439560,61146300.366300,105.812576,1,2,1,1,2,40.000000
2025-11-11 12:47:41.379,,,,,,,,,,,,,,,,,,,,,,,,,,,,,,,,,,,,,,,,,,/muse/elements/blink
2025-11-11 12:47:42.084,,,,,,,,,,,,,,,,,,,,,,,,,,,,,,,,,,,,,,,,,,/muse/elements/blink
2025-11-11 12:47:42.137,1.773030821346536,0.3624202336511547,1.068434485903002,0,2.018099537002729,0.1692244053603889,0.537704179858304,0,1.7334356757331,0.125514372472196,0.2107588334616425,0,0.8475231565984436,0.02469640166818843,-0.03161135890787128,0,0.4525159316686014,-0.3103802744938711,-0.3115633468179789,0,853.8095238095239,794.981684981685,797.3992673992674,774.4322344322345,631.7948717948718,0.259033,-0.153503,0.878662,-10.803986,-8.994598,-13.084412,311062.271062,121323956.043956,61324395.604396,119.512665,1,2,1,1,2,40.000000
2025-11-11 12:47:43.135,1.773030821346536,0.8217551180715916,0.8068406155055701,0,2.018099537002729,0.4937109796662647,0.687187770635877,0,1.7334356757331,0.3688094874880653,0.3063841892880136,0,0.8475231565984436,-0.00616587759362904,0.2246102769028114,0,0.4525159316686014,-0.1697981403506621,0.1105441503702638,0,779.2673992673992,813.1135531135532,821.978021978022,790.1465201465202,607.2161172161173,0.178528,0.080627,0.891357,-4.987030,-3.461761,-47.948761,305421.245421,121531868.131868,61375970.695971,121.108032,1,2,1,1,2,40.000000
2025-11-11 12:47:43.385,,,,,,,,,,,,,,,,,,,,,,,,,,,,,,,,,,,,,,,,,,/muse/elements/blink
2025-11-11 12:47:44.005,,,,,,,,,,,,,,,,,,,,,,,,,,,,,,,,,,,,,,,,,,/muse/elements/blink
2025-11-11 12:47:44.143,1.773030821346536,1.01314136668035,1.30863948604427,0,2.018099537002729,0.6548656121352749,1.092102469337918,0,1.7334356757331,0.2059604945005796,0.2082653110805197,0,0.8475231565984436,0.0698411063904272,-0.1203068594812456,0,0.4525159316686014,-0.2643014635637277,-0.5177671630561864,0,823.5897435897436,811.0989010989011,762.7472527472528,876.3736263736264,615.2747252747253,-0.032471,-0.070007,1.837341,-9.458160,21.271515,-62.192078,304615.384615,122000879.120879,61571794.871795,120.526932,1,2,1,1,4,40.000000
2025-11-11 12:47:44.604,,,,,,,,,,,,,,,,,,,,,,,,,,,,,,,,,,,,,,,,,,/muse/elements/blink
2025-11-11 12:47:44.946,,,,,,,,,,,,,,,,,,,,,,,,,,,,,,,,,,,,,,,,,,/muse/elements/blink
2025-11-11 12:47:45.135,1.773030821346536,1.093720034113216,1.30863948604427,0,2.018099537002729,0.6275732965388986,1.092102469337918,0,1.7334356757331,0.3190213424574286,0.2082653110805197,0,0.8475231565984436,0.03138781264904459,-0.1203068594812456,0,0.4525159316686014,-0.280822248678714,-0.5177671630561864,0,813.919413919414,811.0989010989011,790.952380952381,792.967032967033,500.8424908424909,-0.078796,-0.015564,0.943665,-1.151428,-19.013519,-79.642944,299780.219780,121764761.904762,61425934.065934,118.529984,1,2,1,1,2,40.000000
2025-11-11 12:47:45.221,,,,,,,,,,,,,,,,,,,,,,,,,,,,,,,,,,,,,,,,,,/muse/elements/blink
2025-11-11 12:47:46.136,1.773030821346536,1.093720034113216,1.30863948604427,0,2.018099537002729,0.6275732965388986,1.092102469337918,0,1.7334356757331,0.3190213424574286,0.2082653110805197,0,0.8475231565984436,0.03138781264904459,-0.1203068594812456,0,0.4525159316686014,-0.280822248678714,-0.5177671630561864,0,800.6227106227107,782.893772893773,816.3369963369963,840.5128205128206,1142.710622710623,0.117676,0.080811,1.083313,-16.284485,14.153595,-39.036407,303003.663004,122174945.054945,61694285.714286,118.529984,1,2,1,1,2,40.000000
2025-11-11 12:47:47.135,1.773030821346536,0.9247091735202772,1.193777676548446,0,2.018099537002729,0.6468221259715404,0.8189692506950141,0,1.7334356757331,0.5865398410653472,0.6725548848891826,0,0.8475231565984436,0.09899602946917263,-0.08127264379444511,0,0.4525159316686014,-0.3164504791649846,-0.5190683562319055,0,792.5641025641025,791.7582417582418,801.8315018315019,846.5567765567765,1105.238095238095,0.219055,0.131104,0.916870,-9.480591,-28.695984,-24.135132,307838.827839,121802637.362637,61562124.542125,125.723366,1,2,1,1,2,40.000000
2025-11-11 12:47:47.905,,,,,,,,,,,,,,,,,,,,,,,,,,,,,,,,,,,,,,,,,,/muse/elements/blink
2025-11-11 12:47:48.077,,,,,,,,,,,,,,,,,,,,,,,,,,,,,,,,,,,,,,,,,,/muse/elements/blink
2025-11-11 12:47:48.136,1.773030821346536,0.1254664329988865,0.9988908248812619,0,2.018099537002729,0.1254725749101616,0.6407153194677553,0,1.7334356757331,0.2518045413838906,0.5649712781486387,0,0.8475231565984436,0.02541169138731677,-0.005073187368577974,0,0.4525159316686014,-0.3582889802617022,-0.4712203149250396,0,906.5934065934066,784.1025641025641,780.4761904761905,946.0805860805862,790.5494505494506,0.166138,-0.123230,0.903687,2.908478,7.731018,13.061981,307032.967033,121284468.864469,61353406.593407,134.510925,1,2,1,1,2,40.000000
2025-11-11 12:47:49.013,,,,,,,,,,,,,,,,,,,,,,,,,,,,,,,,,,,,,,,,,,/muse/elements/blink
2025-11-11 12:47:49.136,1.773030821346536,0.1827638198113992,0.9530136026171329,0,2.018099537002729,0.1628170206864865,0.3777666842322248,0,1.7334356757331,0.1043089674009488,0.07243303885566692,0,0.8475231565984436,0.02078812079535713,0.02076747395083814,0,0.4525159316686014,-0.5293734461110727,-0.490789742564595,0,746.2271062271062,782.0879120879121,837.6923076923077,205.0915750915751,706.7399267399268,0.126282,-0.141357,0.935974,11.267548,-4.620667,37.570953,311062.271062,120924249.084249,61227692.307692,123.015053,1,2,1,1,2,40.000000
2025-11-11 12:47:49.316,,,,,,,,,,,,,,,,,,,,,,,,,,,,,,,,,,,,,,,,,,/muse/elements/blink
2025-11-11 12:47:49.829,,,,,,,,,,,,,,,,,,,,,,,,,,,,,,,,,,,,,,,,,,/muse/elements/blink
2025-11-11 12:47:50.085,,,,,,,,,,,,,,,,,,,,,,,,,,,,,,,,,,,,,,,,,,/muse/elements/blink
2025-11-11 12:47:50.137,1.773030821346536,0.6124156127070225,1.298756658892932,0,2.018099537002729,0.1900610752029655,0.6683022855379072,0,1.7334356757331,0.0593768039592989,0.6459155906467198,0,0.8475231565984436,0.08679604473826001,-0.002397235944701813,0,0.4525159316686014,-0.2945272075309046,-0.4664074600369034,0,809.0842490842491,796.1904761904763,793.7728937728938,823.5897435897436,913.040293040293,0.224182,0.183777,0.855286,8.987122,9.667511,42.991638,309450.549451,121356996.336996,61442051.282051,122.521332,1,2,1,1,2,40.000000
2025-11-11 12:47:50.854,,,,,,,,,,,,,,,,,,,,,,,,,,,,,,,,,,,,,,,,,,/muse/elements/blink
2025-11-11 12:47:51.142,1.773030821346536,0.5161757742652079,1.407664421388173,0,2.018099537002729,0.1969143511741714,0.781798487200277,0,1.7334356757331,0.3190972367668664,0.5831603833440723,0,0.8475231565984436,0.0848321482216594,0.07591787083349066,0,0.4525159316686014,-0.3236142547613229,-0.490041642974832,0,833.2600732600733,788.9377289377289,796.1904761904763,876.7765567765568,806.6666666666667,0.150513,0.120667,1.016724,18.751831,10.190887,32.568970,302197.802198,121763150.183150,61595164.835165,116.673462,1,2,1,1,2,40.000000
2025-11-11 12:47:51.216,,,,,,,,,,,,,,,,,,,,,,,,,,,,,,,,,,,,,,,,,,/muse/elements/blink
2025-11-11 12:47:52.067,,,,,,,,,,,,,,,,,,,,,,,,,,,,,,,,,,,,,,,,,,/muse/elements/blink
2025-11-11 12:47:52.141,1.773030821346536,0.6652567317898732,1.410746386743842,0,2.018099537002729,0.1227493700025034,0.8900438172237096,0,1.7334356757331,0.2905521464795202,0.5172028511303139,0,0.8475231565984436,0.1215045390759534,0.03017206125281715,0,0.4525159316686014,-0.3422671762201945,-0.3741791824597466,0,776.4468864468864,786.1172161172161,834.0659340659341,0.4029304029304029,558.4615384615385,0.109558,-0.045959,0.971252,5.413208,-4.329071,82.633667,304615.384615,121712380.952381,61452527.472527,116.414513,1,2,1,1,2,40.000000
2025-11-11 12:47:52.237,,,,,,,,,,,,,,,,,,,,,,,,,,,,,,,,,,,,,,,,,,/muse/elements/blink
2025-11-11 12:47:53.136,1.773030821346536,0.6413130947281491,1.671973035986875,0,2.018099537002729,0.5198118753037118,1.478052905713577,0,1.7334356757331,0.5302511181096319,0.8349997758297487,0,0.8475231565984436,0.01708822804853651,0.2303181061051233,0,0.4525159316686014,-0.4404264876598302,-0.2617035634878705,0,811.0989010989011,794.1758241758242,804.2490842490843,798.6080586080586,789.7435897435897,0.173584,0.147644,1.201416,11.297455,11.970367,41.129913,307838.827839,122021025.641026,61588717.948718,116.731239,1,2,1,1,2,40.000000
2025-11-11 12:47:53.756,,,,,,,,,,,,,,,,,,,,,,,,,,,,,,,,,,,,,,,,,,/muse/elements/blink
2025-11-11 12:47:54.076,,,,,,,,,,,,,,,,,,,,,,,,,,,,,,,,,,,,,,,,,,/muse/elements/blink
2025-11-11 12:47:54.136,1.773030821346536,0.5584373756458368,0.563997468682758,0,2.018099537002729,0.1905555671541096,0.2448201871734113,0,1.7334356757331,0.4543151179949297,0.2036002720828891,0,0.8475231565984436,-0.1414377237918256,-0.0277490856302923,0,0.4525159316686014,-0.4476123001913356,-0.3243412007943558,0,822.3809523809524,794.981684981685,784.1025641025641,797.8021978021978,613.2600732600732,0.177063,0.001038,0.956787,-4.508514,-18.684540,3.730927,307032.967033,122016190.476190,61593553.113553,111.662682,1,2,1,1,2,40.000000
2025-11-11 12:47:54.952,,,,,,,,,,,,,,,,,,,,,,,,,,,,,,,,,,,,,,,,,,/muse/elements/blink
2025-11-11 12:47:55.136,1.773030821346536,0.4628469526760938,0.7694821554474289,0,2.018099537002729,0.06771116060316519,0.3285837549903824,0,1.7334356757331,0.4473879535044693,0.2408924362979971,0,0.8475231565984436,-0.0548334992619828,-0.03015809164328246,0,0.4525159316686014,-0.4854071257099844,-0.5008407970439748,0,509.3040293040293,887.6556776556777,836.0805860805862,435.970695970696,618.0952380952381,0.281433,-0.239868,0.829163,-4.172058,0.052338,-21.839752,305421.245421,122021831.501832,61637069.597070,135.605972,1,2,1,1,2,40.000000
2025-11-11 12:47:55.314,,,,,,,,,,,,,,,,,,,,,,,,,,,,,,,,,,,,,,,,,,/muse/elements/blink
2025-11-11 12:47:56.136,1.773030821346536,0.2624745374467912,0.736164962006552,0,2.018099537002729,0.1124496579227943,0.3410236953546065,0,1.7334356757331,0.4042629170041009,-0.01760714083281701,0,0.8475231565984436,0.03740213479334862,-0.06759136633739794,0,0.4525159316686014,-0.6347540824970175,-0.5926324582290562,0,827.6190476190476,804.6520146520147,782.4908424908425,777.6556776556777,712.7838827838829,0.236877,-0.020142,0.958557,-7.940369,-12.658234,-39.417725,304615.384615,121807472.527473,61550036.630037,135.605972,1,2,1,1,2,40.000000
2025-11-11 12:47:56.715,,,,,,,,,,,,,,,,,,,,,,,,,,,,,,,,,,,,,,,,,,/muse/elements/blink
2025-11-11 12:47:57.136,1.773030821346536,0.6950614506729722,0.6803484121131488,0,2.018099537002729,0.1752353194616107,0.3368478651618639,0,1.7334356757331,0.1610501041070765,-0.05193358933723603,0,0.8475231565984436,-0.00730025221040133,-0.05597697550669221,0,0.4525159316686014,-0.267529052558307,-0.5631133141053162,0,763.1501831501831,816.7399267399268,743.0036630036631,778.8644688644689,542.7472527472528,0.212463,0.174805,0.964783,-13.076935,8.830109,-46.528168,303809.523810,121860659.340659,61580659.340659,135.605972,1,2,1,1,2,40.000000
2025-11-11 12:47:57.311,,,,,,,,,,,,,,,,,,,,,,,,,,,,,,,,,,,,,,,,,,/muse/elements/blink
2025-11-11 12:47:57.864,,,,,,,,,,,,,,,,,,,,,,,,,,,,,,,,,,,,,,,,,,/muse/elements/blink
2025-11-11 12:47:58.136,1.773030821346536,0.9661766625586979,1.599579301018318,0,2.018099537002729,0.3091147551709028,1.240679350991514,0,1.7334356757331,0.2837382180067309,0.7243591261955361,0,0.8475231565984436,0.01155361293492656,-0.01994198935610622,0,0.4525159316686014,-0.1598254086142598,-0.4680251710256471,0,815.1282051282052,795.7875457875458,831.6483516483516,822.7838827838829,859.8534798534798,0.046387,0.186462,0.912170,-17.869568,-31.238098,-68.711853,302197.802198,121286886.446886,61246227.106227,155.903610,1,2,1,1,2,40.000000
2025-11-11 12:47:59.051,,,,,,,,,,,,,,,,,,,,,,,,,,,,,,,,,,,,,,,,,,/muse/elements/blink
2025-11-11 12:47:59.135,1.773030821346536,1.165592658072264,1.599579301018318,0,2.018099537002729,0.7909634322170978,1.240679350991514,0,1.7334356757331,0.7177313390360398,0.7243591261955361,0,0.8475231565984436,0.06562060741344616,-0.01994198935610622,0,0.4525159316686014,-0.1023411802134927,-0.4680251710256471,0,820.7692307692308,794.1758241758242,801.025641025641,811.0989010989011,743.0036630036631,0.302063,-0.145325,0.926880,-10.826416,-2.243042,-47.806702,302197.802198,121930769.230769,61550036.630037,164.040619,1,2,1,1,2,40.000000
2025-11-11 12:48:00.136,1.773030821346536,0.8131704982923741,1.599579301018318,0,2.018099537002729,0.6866142203431841,1.240679350991514,0,1.7334356757331,0.7209494373959331,0.7243591261955361,0,0.8475231565984436,0.04072780508311252,-0.01994198935610622,0,0.4525159316686014,-0.1186656646339413,-0.4680251710256471,0,822.7838827838829,794.981684981685,808.2783882783883,803.4432234432235,579.0109890109891,0.343445,-0.084595,0.656677,-0.672913,13.839569,-28.927765,305421.245421,122046813.186813,61545201.465201,148.268967,1,2,1,1,2,40.000000
2025-11-11 12:48:00.201,,,,,,,,,,,,,,,,,,,,,,,,,,,,,,,,,,,,,,,,,,/muse/elements/blink
2025-11-11 12:48:01.068,,,,,,,,,,,,,,,,,,,,,,,,,,,,,,,,,,,,,,,,,,/muse/elements/blink
2025-11-11 12:48:01.135,1.773030821346536,0.718203940845325,1.067736840390441,0,2.018099537002729,0.5754119414732329,0.8500159112845034,0,1.7334356757331,0.7883760121969402,0.8612960628407299,0,0.8475231565984436,-0.1284721783544598,0.0769397118361372,0,0.4525159316686014,-0.2857561881102059,-0.4684478801792103,0,832.0512820512821,794.981684981685,800.2197802197802,807.0695970695971,987.1794871794872,0.167542,0.119934,0.950500,-2.145844,-13.032074,1.166382,309450.549451,121863882.783883,61417069.597070,149.305817,1,2,1,1,2,40.000000
2025-11-11 12:48:01.814,,,,,,,,,,,,,,,,,,,,,,,,,,,,,,,,,,,,,,,,,,/muse/elements/blink
2025-11-11 12:48:02.135,1.773030821346536,0.5822909938515045,0.9268293570688303,0,2.018099537002729,0.2017881513323823,0.4148932973158837,0,1.7334356757331,0.1897396121137586,0.7436555063078181,0,0.8475231565984436,-0.09033737016836181,-0.1434993639514682,0,0.4525159316686014,-0.4151846677279895,-0.3959950937792823,0,811.9047619047619,799.0109890109891,790.1465201465202,862.6739926739926,711.1721611721612,0.144104,-0.112488,0.941650,-3.364563,-5.218811,16.112518,311868.131868,121552014.652015,61259120.879121,152.587387,1,2,1,1,2,40.000000
2025-11-11 12:48:02.196,,,,,,,,,,,,,,,,,,,,,,,,,,,,,,,,,,,,,,,,,,/muse/elements/blink
2025-11-11 12:48:02.621,,,,,,,,,,,,,,,,,,,,,,,,,,,,,,,,,,,,,,,,,,/muse/elements/blink
2025-11-11 12:48:03.131,,,,,,,,,,,,,,,,,,,,,,,,,,,,,,,,,,,,,,,,,,/muse/elements/blink
2025-11-11 12:48:03.142,1.773030821346536,1.013943423211606,1.197087471644852,0,2.018099537002729,0.6154271435660005,0.5383473329661177,0,1.7334356757331,0.5182433501057385,0.7440549507776194,0,0.8475231565984436,-0.2024283734586844,-0.118278620858706,0,0.4525159316686014,-0.2574609227201218,-0.3728759993495882,0,620.1098901098901,842.5274725274726,826.007326007326,703.919413919414,533.4798534798535,0.158569,0.142883,0.799866,56.621857,16.277008,106.738892,314285.714286,121473846.153846,61269597.069597,152.587387,1,2,1,1,2,40.000000
2025-11-11 12:48:04.135,1.773030821346536,0.9717289020262074,1.256858383073125,0,2.018099537002729,0.4417819287627673,0.5133085213954823,0,1.7334356757331,0.3605474203995743,0.7321560720121678,0,0.8475231565984436,-0.2025670875804951,-0.05387167483854993,0,0.4525159316686014,-0.3887187442611952,-0.3980542034164944,0,805.0549450549451,804.2490842490843,790.1465201465202,830.4395604395604,657.985347985348,0.241943,0.020813,0.943787,-0.269165,-15.648956,17.062073,303003.663004,121256263.736264,61311501.831502,133.853439,1,2,1,1,2,40.000000
2025-11-11 12:48:04.643,,,,,,,,,,,,,,,,,,,,,,,,,,,,,,,,,,,,,,,,,,/muse/elements/blink
2025-11-11 12:48:05.140,1.773030821346536,1.005852258190066,1.256858383073125,0,2.018099537002729,0.5325472427416575,0.5133085213954823,0,1.7334356757331,0.366158838939292,0.7321560720121678,0,0.8475231565984436,0.008364043297758972,-0.05387167483854993,0,0.4525159316686014,-0.3145884781212934,-0.3980542034164944,0,736.5567765567765,808.2783882783883,810.6959706959707,769.5970695970697,758.3150183150184,0.227905,-0.123657,0.924438,8.710480,0.082245,30.191345,302197.802198,121412600.732601,61399340.659341,132.693954,1,2,1,1,2,40.000000
2025-11-11 12:48:05.321,,,,,,,,,,,,,,,,,,,,,,,,,,,,,,,,,,,,,,,,,,/muse/elements/blink
2025-11-11 12:48:05.747,,,,,,,,,,,,,,,,,,,,,,,,,,,,,,,,,,,,,,,,,,/muse/elements/blink
2025-11-11 12:48:06.136,1.773030821346536,0.921771964377465,1.442192199815162,0,2.018099537002729,0.4444459512083218,1.052298930232773,0,1.7334356757331,0.3840113726920997,0.7026730043032851,0,0.8475231565984436,-0.1071462880693382,0.3442389559739706,0,0.4525159316686014,-0.2638618879846839,-0.4412280638161907,0,832.4542124542124,795.7875457875458,803.8461538461539,810.6959706959707,606.007326007326,0.146667,-0.005066,0.924194,20.516357,18.063965,77.227936,305421.245421,121567326.007326,61436410.256410,132.693954,1,2,1,1,2,40.000000
2025-11-11 12:48:06.172,,,,,,,,,,,,,,,,,,,,,,,,,,,,,,,,,,,,,,,,,,/muse/elements/blink
2025-11-11 12:48:06.469,,,,,,,,,,,,,,,,,,,,,,,,,,,,,,,,,,,,,,,,,,/muse/elements/blink
2025-11-11 12:48:07.141,1.773030821346536,0.8235681983694844,1.442192199815162,0,2.018099537002729,0.3807431523339018,1.052298930232773,0,1.7334356757331,0.4087082930554318,0.7026730043032851,0,0.8475231565984436,-0.06198136559698769,0.3442389559739706,0,0.4525159316686014,-0.4437533473297824,-0.4412280638161907,0,802.2344322344322,808.6813186813187,786.1172161172161,774.0293040293041,682.5641025641025,0.228943,0.039917,0.936890,-1.114044,-7.858124,10.654449,305421.245421,121798608.058608,61527472.527473,127.243355,1,2,1,1,2,40.000000
2025-11-11 12:48:07.386,,,,,,,,,,,,,,,,,,,,,,,,,,,,,,,,,,,,,,,,,,/muse/elements/blink
2025-11-11 12:48:07.662,,,,,,,,,,,,,,,,,,,,,,,,,,,,,,,,,,,,,,,,,,/muse/elements/blink
2025-11-11 12:48:08.136,1.793452410369316,0.4356888225972834,0.8828833878907005,0,0.9186404361171512,0.26030885703241,0.405971095444955,0,1.041195658118065,0.2578532922793654,0.008776329141257394,0,0.8109761498982925,-0.1190552745563065,0.159869883437778,0,0.2786693341623347,-0.4190785903946402,-0.4712172593007424,0,764.3589743589744,796.1904761904763,781.6849816849817,940.8424908424909,941.6483516483516,0.286011,0.005798,1.245300,4.762726,10.886230,2.205658,307032.967033,121988791.208791,61582271.062271,116.979568,1,1,1,1,1,40.000000
2025-11-11 12:48:08.193,,,,,,,,,,,,,,,,,,,,,,,,,,,,,,,,,,,,,,,,,,/muse/elements/blink
2025-11-11 12:48:09.127,,,,,,,,,,,,,,,,,,,,,,,,,,,,,,,,,,,,,,,,,,/muse/elements/blink
2025-11-11 12:48:09.137,1.793452410369316,0.6926394612723623,1.332510978833719,0,0.9186404361171512,0.4372587939568146,0.9907931140180973,0,1.041195658118065,-0.01845076406562237,0.3569386761475836,0,0.8109761498982925,-0.01796833147228091,0.1584569685703041,0,0.2786693341623347,-0.2221095010677406,-0.4428318772128927,0,825.6043956043957,790.5494505494506,799.4139194139194,807.8754578754579,575.7875457875458,0.288269,-0.077576,0.947449,-7.888031,-11.461945,-10.721741,307838.827839,122178168.498168,61652380.952381,114.723320,1,1,1,1,1,40.000000
2025-11-11 12:48:09.595,,,,,,,,,,,,,,,,,,,,,,,,,,,,,,,,,,,,,,,,,,/muse/elements/blink
2025-11-11 12:48:09.916,,,,,,,,,,,,,,,,,,,,,,,,,,,,,,,,,,,,,,,,,,/muse/elements/blink
2025-11-11 12:48:10.139,1.793452410369316,0.8469401428950545,1.545565751628666,0,0.9186404361171512,0.7549470368364792,1.195620496175668,0,1.041195658118065,0.4692561324494209,0.838753548152124,0,0.8109761498982925,0.01405907421280722,-0.03331925077126695,0,0.2786693341623347,-0.2358391406137441,-0.3461619695169514,0,816.3369963369963,796.5934065934066,788.5347985347986,803.040293040293,754.2857142857143,0.185913,0.151062,0.901001,-4.987030,4.411316,-42.251434,306227.106227,122072600.732601,61558901.098901,114.723320,1,1,1,1,1,40.000000
2025-11-11 12:48:10.213,,,,,,,,,,,,,,,,,,,,,,,,,,,,,,,,,,,,,,,,,,/muse/elements/blink
2025-11-11 12:48:10.638,,,,,,,,,,,,,,,,,,,,,,,,,,,,,,,,,,,,,,,,,,/muse/elements/blink
2025-11-11 12:48:11.136,1.793452410369316,0.8539967692424006,1.578546761940675,0,0.9186404361171512,0.6426609339073952,1.214350183711564,0,1.041195658118065,0.5072538468503798,0.9672302778234285,0,0.8109761498982925,-0.03542751135739296,0.05033782168174322,0,0.2786693341623347,-0.2395087025691486,-0.3521520241640334,0,740.5860805860806,820.7692307692308,758.3150183150184,801.8315018315019,686.1904761904763,0.126648,0.072937,1.230896,-4.717865,13.690033,-48.098297,304615.384615,121923516.483516,61472673.992674,114.723320,1,2,1,1,2,40.000000
2025-11-11 12:48:11.319,,,,,,,,,,,,,,,,,,,,,,,,,,,,,,,,,,,,,,,,,,/muse/elements/blink
2025-11-11 12:48:12.139,1.793452410369316,0.7338384768211792,1.584256606025094,0,0.9186404361171512,0.3601145513074265,1.243089901979054,0,1.041195658118065,0.4159363652972873,1.072973582752073,0,0.8109761498982925,-0.02099385164980925,0.05043837635326811,0,0.2786693341623347,-0.1658215568776978,-0.4574351360045709,0,780.0732600732601,795.7875457875458,813.1135531135532,0,565.7142857142858,0.192688,0.043945,1.005310,-5.405731,-15.409698,-36.098022,299780.219780,121854212.454212,61524249.084249,136.048172,1,2,1,1,4,40.000000
2025-11-11 12:48:12.874,,,,,,,,,,,,,,,,,,,,,,,,,,,,,,,,,,,,,,,,,,/muse/elements/blink
2025-11-11 12:48:13.135,1.793452410369316,0.5065550827289034,1.603522157987684,0,0.9186404361171512,0.2311325050070601,1.141142551891695,0,1.041195658118065,0.2277344934194709,0.9334124027753483,0,0.8109761498982925,0.04446909812364722,-0.01383599566877261,0,0.2786693341623347,-0.2309302288780873,-0.5304743309354736,0,774.4322344322345,807.4725274725275,789.7435897435897,762.7472527472528,568.5347985347986,0.274048,0.070129,0.955566,-14.123688,11.529236,-36.726074,303003.663004,121861465.201465,61591941.391941,146.417755,1,2,1,1,2,40.000000
2025-11-11 12:48:13.238,,,,,,,,,,,,,,,,,,,,,,,,,,,,,,,,,,,,,,,,,,/muse/elements/blink
2025-11-11 12:48:14.142,1.793452410369316,0.6294570409057894,1.594099379871092,0,0.9186404361171512,0.3621655660434517,1.162857167806481,0,1.041195658118065,0.2733262773987662,0.9319603477932142,0,0.8109761498982925,-0.04196403130790688,0.1140797110461508,0,0.2786693341623347,-0.3931901044132867,-0.6327710569381179,0,703.1135531135532,795.7875457875458,781.6849816849817,1057.692307692308,795.3846153846154,0.237427,0.123840,0.897095,-3.940277,-8.531036,-52.285309,306227.106227,121772820.512821,61516996.336996,149.970291,1,2,1,1,4,40.000000
2025-11-11 12:48:14.279,,,,,,,,,,,,,,,,,,,,,,,,,,,,,,,,,,,,,,,,,,/muse/elements/blink
2025-11-11 12:48:15.088,,,,,,,,,,,,,,,,,,,,,,,,,,,,,,,,,,,,,,,,,,/muse/elements/blink
2025-11-11 12:48:15.139,1.793452410369316,0.9347738231313876,1.529421060322022,0,0.9186404361171512,0.5242497590466662,1.064866334475701,0,1.041195658118065,0.55408643645958,0.8471851178679906,0,0.8109761498982925,0.07195832917471101,0.0853415664799065,0,0.2786693341623347,-0.3625629721012536,-0.8852657861363294,0,643.8827838827839,821.1721611721612,836.8864468864469,712.7838827838829,556.0439560439561,0.360596,0.090027,0.891846,4.755249,-16.015320,-3.469238,306227.106227,122055677.655678,61634652.014652,147.855392,1,2,1,1,2,40.000000
2025-11-11 12:48:15.322,,,,,,,,,,,,,,,,,,,,,,,,,,,,,,,,,,,,,,,,,,/muse/elements/blink
2025-11-11 12:48:15.959,,,,,,,,,,,,,,,,,,,,,,,,,,,,,,,,,,,,,,,,,,/muse/elements/blink
2025-11-11 12:48:16.139,1.793452410369316,1.186964226898871,1.383417183365186,0,0.9186404361171512,0.9241721140693673,0.8638970349018195,0,1.041195658118065,0.8176008785593398,0.4354099828816052,0,0.8109761498982925,0.07256213291290968,-0.09446020865002903,0,0.2786693341623347,-0.356810493064915,-0.4978317988288647,0,808.6813186813187,798.6080586080586,784.9084249084249,743.4065934065934,686.1904761904763,0.226990,0.105042,0.926880,1.472931,3.611298,26.587524,304615.384615,121857435.897436,61455750.915751,140.368286,1,2,1,1,2,40.000000
2025-11-11 12:48:16.534,,,,,,,,,,,,,,,,,,,,,,,,,,,,,,,,,,,,,,,,,,/muse/elements/blink
2025-11-11 12:48:17.135,1.793452410369316,0.6921100746495811,1.327450743245272,0,0.9186404361171512,0.2710776097611859,0.7167705648517416,0,1.041195658118065,0.1321186913476981,0.4937975799016002,0,0.8109761498982925,-0.08587788171029423,-0.04689261554592116,0,0.2786693341623347,-0.5319828208142316,-0.4713563559472518,0,806.2637362637363,795.3846153846154,810.2930402930403,771.6117216117216,758.7179487179487,0.306580,-0.041077,0.799622,10.146027,-6.220703,42.834625,308644.688645,122166886.446886,61623369.963370,127.700638,1,2,1,1,2,40.000000
2025-11-11 12:48:17.520,,,,,,,,,,,,,,,,,,,,,,,,,,,,,,,,,,,,,,,,,,/muse/elements/blink
2025-11-11 12:48:18.031,,,,,,,,,,,,,,,,,,,,,,,,,,,,,,,,,,,,,,,,,,/muse/elements/blink
2025-11-11 12:48:18.136,1.793452410369316,0.6132796322550422,1.331205005565999,0,0.9186404361171512,0.2445723743052162,0.6415227837346942,0,1.041195658118065,0.4300558956170618,0.4593245328453798,0,0.8109761498982925,-0.01601164534463514,-0.04453570169136604,0,0.2786693341623347,-0.4618471190331755,-0.5174832603959792,0,734.9450549450549,797.3992673992674,828.8278388278388,774.8351648351648,643.8827838827839,0.191345,-0.120483,0.963745,15.731201,-6.258087,59.792023,301391.941392,121784908.424908,61380805.860806,127.700638,1,2,1,1,2,40.000000
2025-11-11 12:48:18.265,,,,,,,,,,,,,,,,,,,,,,,,,,,,,,,,,,,,,,,,,,/muse/elements/blink
2025-11-11 12:48:19.136,1.793452410369316,0.8166474702019632,1.478930159432836,0,0.9186404361171512,0.199244470787495,1.030586157299592,0,1.041195658118065,0.4211827349398494,0.5718516483985435,0,0.8109761498982925,0.009298591784518974,0.2085422634690775,0,0.2786693341623347,-0.3431739536296339,-0.3585379789070939,0,772.4175824175825,780.4761904761905,846.5567765567765,792.5641025641025,843.3333333333334,0.229248,-0.046875,0.979431,10.273132,-13.248901,65.137939,302197.802198,121821172.161172,61390476.190476,127.700638,1,2,1,1,2,40.000000
2025-11-11 12:48:19.243,,,,,,,,,,,,,,,,,,,,,,,,,,,,,,,,,,,,,,,,,,/muse/elements/blink
2025-11-11 12:48:20.142,1.793452410369316,1.132808509139781,1.547770606899682,0,0.9186404361171512,0.6260153898070661,1.136351422038389,0,1.041195658118065,0.413401854435219,0.5316198952160829,0,0.8109761498982925,0.05179130761793106,0.2420563219373721,0,0.2786693341623347,-0.3048700631513023,-0.3328124841059862,0,802.2344322344322,794.981684981685,786.5201465201466,826.007326007326,1002.490842490843,0.152222,0.026245,0.966431,-7.387085,-3.947754,22.041626,306227.106227,121617289.377289,61353406.593407,126.824799,1,2,1,1,2,40.000000
2025-11-11 12:48:20.556,,,,,,,,,,,,,,,,,,,,,,,,,,,,,,,,,,,,,,,,,,/muse/elements/blink
2025-11-11 12:48:21.090,,,,,,,,,,,,,,,,,,,,,,,,,,,,,,,,,,,,,,,,,,/muse/elements/blink
2025-11-11 12:48:21.141,1.793452410369316,1.122892903258645,1.547770606899682,0,0.9186404361171512,0.8991134998396205,1.136351422038389,0,1.041195658118065,0.576345376272556,0.5316198952160829,0,0.8109761498982925,0.05199546782992275,0.2420563219373721,0,0.2786693341623347,-0.338601109828436,-0.3328124841059862,0,777.6556776556777,786.1172161172161,809.0842490842491,873.956043956044,637.4358974358975,0.115234,0.077637,0.827637,12.546082,-4.530945,15.581665,306227.106227,121221611.721612,61205934.065934,124.258858,1,2,1,1,2,40.000000
2025-11-11 12:48:22.144,1.793452410369316,1.155123951626377,0.5416009083505817,0,0.9186404361171512,0.8101276319860812,-0.4009438566337866,0,1.041195658118065,0.5133751291591148,-0.1046053873242217,0,0.8109761498982925,0.073145967308044,-0.07803061757841261,0,0.2786693341623347,-0.3469897249706556,-0.5132781810933277,0,778.4615384615385,794.5787545787546,802.6373626373627,826.007326007326,726.8864468864469,0.235840,-0.050964,0.944336,-4.717865,-12.433929,-2.145844,310256.410256,121565714.285714,61430769.230769,124.258858,1,2,1,1,2,40.000000
2025-11-11 12:48:22.539,,,,,,,,,,,,,,,,,,,,,,,,,,,,,,,,,,,,,,,,,,/muse/elements/blink
2025-11-11 12:48:22.904,,,,,,,,,,,,,,,,,,,,,,,,,,,,,,,,,,,,,,,,,,/muse/elements/blink
2025-11-11 12:48:23.136,1.793452410369316,0.925633678144959,0.759791466138685,0,0.9186404361171512,0.4331859608837795,0.03697413052496609,0,1.041195658118065,0.3262760150424711,0.3920891506836768,0,0.8109761498982925,-0.02060473555052111,-0.1234006846823798,0,0.2786693341623347,-0.463176748649564,-0.440976953600477,0,750.6593406593407,813.919413919414,762.3443223443223,776.0439560439561,576.1904761904763,0.242615,0.115662,0.905945,-15.140533,1.457977,-33.884888,304615.384615,121809890.109890,61549230.769231,124.258858,1,2,1,1,2,40.000000
2025-11-11 12:48:23.329,,,,,,,,,,,,,,,,,,,,,,,,,,,,,,,,,,,,,,,,,,/muse/elements/blink
2025-11-11 12:48:24.034,,,,,,,,,,,,,,,,,,,,,,,,,,,,,,,,,,,,,,,,,,/muse/elements/blink
2025-11-11 12:48:24.136,1.793452410369316,0.7849912207467494,1.768388182581277,0,0.9186404361171512,0.4106716649708488,1.341830514599746,0,1.041195658118065,0.3326188977972817,0.9423499660825329,0,0.8109761498982925,0.1229678840896788,0.1829843410127339,0,0.2786693341623347,-0.2935977636012946,-0.3983802100055094,0,781.2820512820513,799.0109890109891,796.5934065934066,742.6007326007326,627.3626373626374,0.163208,0.099182,0.827698,-12.747955,1.188812,-54.700317,306227.106227,122043589.743590,61572600.732601,124.258858,1,2,1,1,2,40.000000
2025-11-11 12:48:25.060,,,,,,,,,,,,,,,,,,,,,,,,,,,,,,,,,,,,,,,,,,/muse/elements/blink
2025-11-11 12:48:25.136,1.793452410369316,0.6430726335384561,1.687011157723826,0,0.9186404361171512,0.3734273084115499,1.266398435381387,0,1.041195658118065,0.329333777003756,1.011711174804039,0,0.8109761498982925,0.106575848354631,0.1825853221533611,0,0.2786693341623347,-0.2651918166454477,-0.357739682894225,0,772.8205128205128,783.2967032967033,793.7728937728938,742.6007326007326,677.7289377289377,0.078003,0.007202,0.937805,-18.706970,6.856232,-52.666626,302197.802198,122220879.120879,61613699.633700,124.258858,1,2,1,1,2,40.000000
2025-11-11 12:48:25.757,,,,,,,,,,,,,,,,,,,,,,,,,,,,,,,,,,,,,,,,,,/muse/elements/blink
2025-11-11 12:48:26.238,1.793452410369316,0.6446284247894791,1.614756847439946,0,0.9186404361171512,0.4178700881200308,1.219076467120866,0,1.041195658118065,0.499646175455311,0.9597077037424092,0,0.8109761498982925,0.02316595622086156,0.2709374730271271,0,0.2786693341623347,-0.3144380495392327,-0.4643665066147669,0,866.7032967032967,775.6410256410256,796.1904761904763,965.8241758241759,796.996336996337,0.168274,-0.123169,0.898315,-14.931183,25.981903,-67.059479,301391.941392,122248278.388278,61587912.087912,124.258858,1,2,1,1,2,40.000000
2025-11-11 12:48:26.474,,,,,,,,,,,,,,,,,,,,,,,,,,,,,,,,,,,,,,,,,,/muse/elements/blink
2025-11-11 12:48:27.234,1.793452410369316,0.5963313207874069,1.677167742326524,0,0.9186404361171512,0.1261084742742714,1.277184844205368,0,1.041195658118065,0.3332048799916358,0.8307615983016717,0,0.8109761498982925,-0.156037287541389,0.07634637969763233,0,0.2786693341623347,-0.1961225059955998,-0.5119607512138459,0,804.6520146520147,798.2051282051282,803.4432234432235,858.6446886446887,755.4945054945055,0.269592,0.124512,0.943726,-12.957306,-22.206116,-34.954071,306227.106227,122259560.439560,61603223.443223,124.258858,1,2,1,1,2,40.000000
2025-11-11 12:48:27.600,,,,,,,,,,,,,,,,,,,,,,,,,,,,,,,,,,,,,,,,,,/muse/elements/blink
2025-11-11 12:48:28.096,,,,,,,,,,,,,,,,,,,,,,,,,,,,,,,,,,,,,,,,,,/muse/elements/blink
2025-11-11 12:48:28.217,1.793452410369316,0.4083229229335655,0.7855505094129644,0,0.9186404361171512,0.349596705991376,0.8259760927967575,0,1.041195658118065,0.459155793084223,0.4276500069509513,0,0.8109761498982925,0.08181738982686598,-0.1489409222188463,0,0.2786693341623347,-0.1843576943261808,-0.364075006042695,0,903.7728937728938,770.8058608058608,789.7435897435897,833.2600732600733,630.1831501831502,0.123901,-0.154419,0.987610,7.940369,-0.381317,1.981354,307838.827839,121582637.362637,61288937.728938,124.258858,1,2,1,1,2,40.000000
2025-11-11 12:48:28.340,,,,,,,,,,,,,,,,,,,,,,,,,,,,,,,,,,,,,,,,,,/muse/elements/blink
2025-11-11 12:48:29.188,,,,,,,,,,,,,,,,,,,,,,,,,,,,,,,,,,,,,,,,,,/muse/elements/blink
2025-11-11 12:48:29.191,1.793452410369316,0.3837806272795879,0.9754893563649756,0,0.9186404361171512,0.06343699389973385,0.7475520877417992,0,1.041195658118065,0.251195763536138,0.4885421086605124,0,0.8109761498982925,-0.1195696166868378,-0.210432920146657,0,0.2786693341623347,-0.1990195590843873,-0.5139706839913811,0,858.2417582417582,790.952380952381,791.3553113553114,623.3333333333334,842.5274725274726,0.106873,-0.099548,0.982910,-2.198181,0.119629,36.374664,311062.271062,121483516.483516,61346959.706960,124.258858,1,2,1,1,2,40.000000
2025-11-11 12:48:29.546,,,,,,,,,,,,,,,,,,,,,,,,,,,,,,,,,,,,,,,,,,/muse/elements/blink
2025-11-11 12:48:30.024,,,,,,,,,,,,,,,,,,,,,,,,,,,,,,,,,,,,,,,,,,/muse/elements/blink
2025-11-11 12:48:30.142,1.793452410369316,0.4680492730981428,1.189140302251672,0,0.9186404361171512,0.03962510373206056,0.7608092631459267,0,1.041195658118065,0.132659410097444,0.6038268917304138,0,0.8109761498982925,-0.1526362512258259,-0.09166433074131866,0,0.2786693341623347,-0.4650752081921103,-0.5440773119914651,0,803.4432234432235,805.8608058608058,776.8498168498169,800.2197802197802,783.6996336996338,0.235901,0.064148,0.922546,7.962799,-13.136749,49.795532,308644.688645,121457728.937729,61404175.824176,124.258858,1,2,1,1,2,40.000000
2025-11-11 12:48:30.750,,,,,,,,,,,,,,,,,,,,,,,,,,,,,,,,,,,,,,,,,,/muse/elements/blink
2025-11-11 12:48:31.235,,,,,,,,,,,,,,,,,,,,,,,,,,,,,,,,,,,,,,,,,,/muse/elements/blink
2025-11-11 12:48:31.239,1.793452410369316,0.6173907418118627,1.394281378034508,0,0.9186404361171512,0.3188986030068313,1.00049639468179,0,1.041195658118065,0.5012245194389153,0.5212628552380578,0,0.8109761498982925,-0.07653709191700027,0.00175311089791526,0,0.2786693341623347,-0.387653360305279,-0.3116522326557564,0,840.9157509157509,792.1611721611722,787.7289377289378,845.7509157509157,689.4139194139194,0.224121,-0.021667,0.948059,3.775787,-3.529053,33.256836,301391.941392,121817142.857143,61574212.454212,124.258858,1,2,1,1,2,40.000000
2025-11-11 12:48:31.609,,,,,,,,,,,,,,,,,,,,,,,,,,,,,,,,,,,,,,,,,,/muse/elements/blink
2025-11-11 12:48:32.240,2.074229242282062,0.8124532218326402,1.61797606284549,0,1.966171409926927,0.4633831013807599,1.201803853976492,0,1.460130050369954,0.5606563115193607,0.7703883259423567,0,0.940719845854604,0.07124392736404456,0.0001950970124023269,0,0.4315646562845787,-0.3876761644118582,-0.351677116509381,0,802.6373626373627,796.996336996337,801.4285714285714,853.0036630036631,694.6520146520147,0.248047,-0.100464,0.922852,14.273224,-2.130890,64.494934,302197.802198,122166080.586081,61670109.890110,117.807503,1,1,1,1,2,40.000000
2025-11-11 12:48:32.483,,,,,,,,,,,,,,,,,,,,,,,,,,,,,,,,,,,,,,,,,,/muse/elements/blink
2025-11-11 12:48:32.733,,,,,,,,,,,,,,,,,,,,,,,,,,,,,,,,,,,,,,,,,,/muse/elements/blink
2025-11-11 12:48:32.992,,,,,,,,,,,,,,,,,,,,,,,,,,,,,,,,,,,,,,,,,,/muse/elements/blink
