TimeStamp,Delta_TP9,Delta_AF7,Delta_AF8,Delta_TP10,Theta_TP9,Theta_AF7,Theta_AF8,Theta_TP10,Alpha_TP9,Alpha_AF7,Alpha_AF8,Alpha_TP10,Beta_TP9,Beta_AF7,Beta_AF8,Beta_TP10,Gamma_TP9,Gamma_AF7,Gamma_AF8,Gamma_TP10,RAW_TP9,RAW_AF7,RAW_AF8,RAW_TP10,AUX_RIGHT,Accelerometer_X,Accelerometer_Y,Accelerometer_Z,Gyro_X,Gyro_Y,Gyro_Z,PPG_Ambient,PPG_IR,PPG_Red,Heart_Rate,HeadBandOn,HSI_TP9,HSI_AF7,HSI_AF8,HSI_TP10,Battery,Elements
2025-11-11 13:11:38.058,,,,,,,,,,,,,,,,,,,,,,,,,,,,,,,,,,,,,,,,,,/muse/event/connected Muse-135C
2025-11-11 13:11:38.128,,,,,,,,,,,,,,,,,,,,,,,,,,,,,,,,,,,,,,,,,,/muse/elements/blink
2025-11-11 13:11:38.159,,,,,,,,,,,,,,,,,,,,,,,,,,,,,,,,,,,,,,,,,,/muse/elements/blink
2025-11-11 13:11:39.028,,,,,,,,,,,,,,,,,,,,,,,,,,,,,,,,,,,,,,,,,,/muse/elements/blink
2025-11-11 13:11:39.059,0,0.2095119698098143,0,0.7765252548391758,0,0.4101738904239692,0,0.8809508973922928,0,0.6688939457543021,0,1.086249469798927,0,1.348588206789552,0,0.980990918851655,0,1.224443889043194,0,0.6393075273216563,861.8681318681319,788.5347985347986,809.0842490842491,810.2930402930403,714.3956043956044,-0.405212,0.076843,0.915649,-0.366364,-0.000000,1.158905,315897.435897,149558901.098901,77859853.479853,71.895561,1,2,1,1,2,45.000000
2025-11-11 13:11:40.030,,,,,,,,,,,,,,,,,,,,,,,,,,,,,,,,,,,,,,,,,,/muse/elements/blink
2025-11-11 13:11:40.062,0,-0.2909811933963802,0,0.7765252548391758,0,-0.1520917833192031,0,0.8809508973922928,0,0.7399397640467361,0,1.086249469798927,0,1.373322638551848,0,0.980990918851655,0,1.248380979112304,0,0.6393075273216563,877.5824175824176,817.948717948718,820.3663003663004,811.9047619047619,725.2747252747253,-0.480713,0.032654,0.908203,-0.859833,3.768311,1.914062,318315.018315,149388864.468864,77737362.637363,75.296326,1,2,1,1,2,45.000000
2025-11-11 13:11:40.731,,,,,,,,,,,,,,,,,,,,,,,,,,,,,,,,,,,,,,,,,,/muse/elements/blink
2025-11-11 13:11:40.731,,,,,,,,,,,,,,,,,,,,,,,,,,,,,,,,,,,,,,,,,,/muse/elements/jaw_clench
2025-11-11 13:11:41.058,0,-0.844624358102006,0,0.7765252548391758,0,-0.5339070919493928,0,0.8809508973922928,0,0.3257796294665501,0,1.086249469798927,0,1.434135135518123,0,0.980990918851655,0,1.29798062811713,0,0.6393075273216563,825.2014652014652,786.1172161172161,815.934065934066,782.0879120879121,815.1282051282052,-0.420715,0.020996,0.897461,-1.958923,-10.512390,3.603821,317509.157509,149269597.069597,77684175.824176,75.296326,1,2,1,1,2,45.000000
2025-11-11 13:11:41.659,,,,,,,,,,,,,,,,,,,,,,,,,,,,,,,,,,,,,,,,,,/muse/elements/blink
2025-11-11 13:11:42.060,0,-0.9110923697845519,0,0.7765252548391758,0,-0.5691837640339394,0,0.8809508973922928,0,0.2044938735141013,0,1.086249469798927,0,1.461842951467881,0,0.980990918851655,0,1.341699572344495,0,0.6393075273216563,827.2161172161173,807.4725274725275,767.985347985348,812.3076923076924,703.919413919414,-0.423767,0.020447,0.842834,-0.082245,-17.271423,2.003784,319120.879121,149335677.655678,77723663.003663,77.190742,1,2,1,1,2,45.000000
2025-11-11 13:11:42.784,,,,,,,,,,,,,,,,,,,,,,,,,,,,,,,,,,,,,,,,,,/muse/elements/blink
2025-11-11 13:11:43.060,0,-0.9110923697845519,0,0.7765252548391758,0,-0.5691837640339394,0,0.8809508973922928,0,0.2044938735141013,0,1.086249469798927,0,1.461842951467881,0,0.980990918851655,0,1.341699572344495,0,0.6393075273216563,834.4688644688645,767.1794871794872,794.1758241758242,795.3846153846154,662.014652014652,-0.422546,0.040100,0.882568,-0.829926,-6.676788,1.353302,317509.157509,149226080.586081,77671282.051282,81.032951,1,2,1,1,2,45.000000
2025-11-11 13:11:43.578,,,,,,,,,,,,,,,,,,,,,,,,,,,,,,,,,,,,,,,,,,/muse/elements/blink
2025-11-11 13:11:43.684,,,,,,,,,,,,,,,,,,,,,,,,,,,,,,,,,,,,,,,,,,/muse/elements/jaw_clench
2025-11-11 13:11:44.001,,,,,,,,,,,,,,,,,,,,,,,,,,,,,,,,,,,,,,,,,,/muse/elements/jaw_clench
2025-11-11 13:11:44.059,0,-0.9110923697845519,0,0.7765252548391758,0,-0.5691837640339394,0,0.8809508973922928,0,0.2044938735141013,0,1.086249469798927,0,1.461842951467881,0,0.980990918851655,0,1.341699572344495,0,0.6393075273216563,832.0512820512821,788.5347985347986,809.4871794871796,818.3516483516484,740.989010989011,-0.421692,0.038513,0.908508,-1.278534,-7.843170,3.028107,317509.157509,149236556.776557,77645494.505495,81.098114,1,2,1,1,2,45.000000
2025-11-11 13:11:44.981,,,,,,,,,,,,,,,,,,,,,,,,,,,,,,,,,,,,,,,,,,/muse/elements/blink
2025-11-11 13:11:45.060,0,0.2857905635861779,0,0.7765252548391758,0,0.07658322202698366,0,0.8809508973922928,0,0.6247757131957675,0,1.086249469798927,0,1.47201897828254,0,0.980990918851655,0,1.267673981697357,0,0.6393075273216563,856.2271062271062,804.2490842490843,888.0586080586081,805.0549450549451,583.040293040293,-0.494202,-0.024109,0.820007,-19.731293,26.445465,30.251160,311868.131868,149015750.915751,77479487.179487,81.203117,1,2,1,1,2,45.000000
2025-11-11 13:11:45.326,,,,,,,,,,,,,,,,,,,,,,,,,,,,,,,,,,,,,,,,,,/muse/elements/jaw_clench
2025-11-11 13:11:46.059,0,0.2857905635861779,0,0.7765252548391758,0,0.07658322202698366,0,0.8809508973922928,0,0.6247757131957675,0,1.086249469798927,0,1.47201897828254,0,0.980990918851655,0,1.267673981697357,0,0.6393075273216563,812.7106227106227,791.7582417582418,645.4945054945055,788.1318681318681,680.1465201465202,-0.386108,0.018005,0.916931,-6.602020,-12.157288,1.233673,301391.941392,149016556.776557,77290109.890110,81.383919,1,2,1,1,2,45.000000
2025-11-11 13:11:47.059,0,0.2857905635861779,0,0.7765252548391758,0,0.07658322202698366,0,0.8809508973922928,0,0.6247757131957675,0,1.086249469798927,0,1.47201897828254,0,0.980990918851655,0,1.267673981697357,0,0.6393075273216563,889.2673992673992,782.0879120879121,707.5457875457876,833.2600732600733,628.1684981684982,-0.311462,0.022156,0.943604,9.256287,-6.377716,-22.049103,307838.827839,149184981.684982,77435164.835165,81.668327,1,2,1,1,2,45.000000
2025-11-11 13:11:47.109,,,,,,,,,,,,,,,,,,,,,,,,,,,,,,,,,,,,,,,,,,/muse/elements/blink
2025-11-11 13:11:48.060,0,0.2857905635861779,0,0.7765252548391758,0,0.07658322202698366,0,0.8809508973922928,0,0.6247757131957675,0,1.086249469798927,0,1.47201897828254,0,0.980990918851655,0,1.267673981697357,0,0.6393075273216563,830.0366300366301,793.7728937728938,970.6593406593407,796.996336996337,921.0989010989011,-0.325684,0.007751,0.946106,9.203949,4.015045,-6.287994,311868.131868,149479120.879121,77956556.776557,81.668327,1,2,1,1,2,45.000000
2025-11-11 13:11:48.983,,,,,,,,,,,,,,,,,,,,,,,,,,,,,,,,,,,,,,,,,,/muse/elements/blink
2025-11-11 13:11:49.059,0.9409004187297302,-0.1402617906879662,0,0.7765252548391758,0.7492818948961193,-0.08282126276695639,0,0.8809508973922928,0.9880037222476818,0.907339601483844,0,1.086249469798927,0.6951986791161423,1.337843055236441,0,0.980990918851655,0.6363252923940483,0.8899409685776909,0,0.6393075273216563,832.0512820512821,791.7582417582418,579.8168498168499,772.8205128205128,1100.40293040293,-0.428711,-0.030701,0.899963,3.454285,-1.958923,-3.304749,313479.853480,148938388.278388,77597142.857143,81.668327,1,1,1,1,1,45.000000
2025-11-11 13:11:49.480,,,,,,,,,,,,,,,,,,,,,,,,,,,,,,,,,,,,,,,,,,/muse/elements/blink
2025-11-11 13:11:50.062,1.013930047063097,-0.1879963389219602,0,0.7765252548391758,0.7965329748152742,-0.09605734702110055,0,0.8809508973922928,0.978433857718551,0.907339601483844,0,1.086249469798927,0.7389511319568752,1.349799788718198,0,0.980990918851655,0.6828553865120004,0.9114531144746127,0,0.6393075273216563,680.1465201465202,828.8278388278388,793.7728937728938,669.6703296703297,653.956043956044,-0.300842,0.024658,0.959412,-1.226196,-4.216919,1.196289,315897.435897,148967399.267399,77921098.901099,81.668327,1,1,1,1,1,45.000000
2025-11-11 13:11:50.287,,,,,,,,,,,,,,,,,,,,,,,,,,,,,,,,,,,,,,,,,,/muse/elements/blink
2025-11-11 13:11:51.062,1.013930047063097,-0.1879963389219602,0,0.7765252548391758,0.7965329748152742,-0.09605734702110055,0,0.8809508973922928,0.978433857718551,0.907339601483844,0,1.086249469798927,0.7389511319568752,1.349799788718198,0,0.980990918851655,0.6828553865120004,0.9114531144746127,0,0.6393075273216563,801.4285714285714,835.2747252747253,575.7875457875458,779.2673992673992,994.4322344322345,-0.276245,0.015198,0.951599,0.194397,-1.839294,-0.052338,318315.018315,149074578.754579,78050036.630037,81.668327,1,1,1,1,1,45.000000
2025-11-11 13:11:51.413,,,,,,,,,,,,,,,,,,,,,,,,,,,,,,,,,,,,,,,,,,/muse/elements/jaw_clench
2025-11-11 13:11:51.520,,,,,,,,,,,,,,,,,,,,,,,,,,,,,,,,,,,,,,,,,,/muse/elements/blink
2025-11-11 13:11:51.605,,,,,,,,,,,,,,,,,,,,,,,,,,,,,,,,,,,,,,,,,,/muse/elements/jaw_clench
2025-11-11 13:11:51.924,,,,,,,,,,,,,,,,,,,,,,,,,,,,,,,,,,,,,,,,,,/muse/elements/jaw_clench
2025-11-11 13:11:52.059,1.013930047063097,-0.1879963389219602,0,0.7765252548391758,0.7965329748152742,-0.09605734702110055,0,0.8809508973922928,0.978433857718551,0.907339601483844,0,1.086249469798927,0.7389511319568752,1.349799788718198,0,0.980990918851655,0.6828553865120004,0.9114531144746127,0,0.6393075273216563,872.7472527472528,815.934065934066,765.9706959706959,850.1831501831502,916.2637362637363,-0.274475,0.018555,0.957703,-0.269165,-3.738403,0.179443,315091.575092,149277655.677656,78156410.256410,81.668327,1,2,1,1,2,45.000000
2025-11-11 13:11:52.221,,,,,,,,,,,,,,,,,,,,,,,,,,,,,,,,,,,,,,,,,,/muse/elements/jaw_clench
2025-11-11 13:11:52.308,,,,,,,,,,,,,,,,,,,,,,,,,,,,,,,,,,,,,,,,,,/muse/elements/blink
2025-11-11 13:11:53.060,1.013930047063097,-0.1879963389219602,0,0.7765252548391758,0.7965329748152742,-0.09605734702110055,0,0.8809508973922928,0.978433857718551,0.907339601483844,0,1.086249469798927,0.7389511319568752,1.349799788718198,0,0.980990918851655,0.6828553865120004,0.9114531144746127,0,0.6393075273216563,886.8498168498169,762.3443223443223,609.6336996336996,882.4175824175825,1047.619047619048,-0.278442,-0.006226,0.966003,-1.570129,-1.839294,-4.261780,314285.714286,149177728.937729,78216043.956044,80.153450,1,2,1,1,2,45.000000
2025-11-11 13:11:53.158,,,,,,,,,,,,,,,,,,,,,,,,,,,,,,,,,,,,,,,,,,/muse/elements/blink
2025-11-11 13:11:53.666,,,,,,,,,,,,,,,,,,,,,,,,,,,,,,,,,,,,,,,,,,/muse/elements/jaw_clench
2025-11-11 13:11:54.060,1.013930047063097,-0.1879963389219602,0,0.7765252548391758,0.7965329748152742,-0.09605734702110055,0,0.8809508973922928,0.978433857718551,0.907339601483844,0,1.086249469798927,0.7389511319568752,1.349799788718198,0,0.980990918851655,0.6828553865120004,0.9114531144746127,0,0.6393075273216563,811.9047619047619,784.9084249084249,911.8315018315019,792.967032967033,597.5457875457876,-0.282837,0.008545,0.958618,-0.448608,-2.175751,0.209351,315897.435897,149321978.021978,78270842.490842,79.240089,1,2,1,1,2,45.000000
2025-11-11 13:11:54.389,,,,,,,,,,,,,,,,,,,,,,,,,,,,,,,,,,,,,,,,,,/muse/elements/blink
2025-11-11 13:11:55.060,1.013930047063097,-0.1879963389219602,0,0.7765252548391758,0.7965329748152742,-0.09605734702110055,0,0.8809508973922928,0.978433857718551,0.907339601483844,0,1.086249469798927,0.7389511319568752,1.349799788718198,0,0.980990918851655,0.6828553865120004,0.9114531144746127,0,0.6393075273216563,803.4432234432235,723.2600732600732,959.3772893772895,801.8315018315019,688.6080586080586,-0.285095,-0.015686,0.957397,-0.657959,-1.622467,0.994415,313479.853480,149480732.600733,78378021.978022,78.920410,1,2,1,1,2,45.000000
2025-11-11 13:11:55.263,,,,,,,,,,,,,,,,,,,,,,,,,,,,,,,,,,,,,,,,,,/muse/elements/blink
2025-11-11 13:11:56.060,1.013930047063097,-0.1879963389219602,0,0.7765252548391758,0.7965329748152742,-0.09605734702110055,0,0.8809508973922928,0.978433857718551,0.907339601483844,0,1.086249469798927,0.7389511319568752,1.349799788718198,0,0.980990918851655,0.6828553865120004,0.9114531144746127,0,0.6393075273216563,807.4725274725275,797.3992673992674,836.4835164835165,796.5934065934066,753.4798534798535,-0.272644,-0.004456,0.961975,-0.328979,-1.929016,1.540222,314285.714286,149511355.311355,78377216.117216,79.233643,1,2,1,1,2,45.000000
2025-11-11 13:11:56.113,,,,,,,,,,,,,,,,,,,,,,,,,,,,,,,,,,,,,,,,,,/muse/elements/jaw_clench
2025-11-11 13:11:56.711,,,,,,,,,,,,,,,,,,,,,,,,,,,,,,,,,,,,,,,,,,/muse/elements/blink
2025-11-11 13:11:56.901,,,,,,,,,,,,,,,,,,,,,,,,,,,,,,,,,,,,,,,,,,/muse/elements/jaw_clench
2025-11-11 13:11:57.062,1.013930047063097,-0.1879963389219602,0,0.7765252548391758,0.7965329748152742,-0.09605734702110055,0,0.8809508973922928,0.978433857718551,0.907339601483844,0,1.086249469798927,0.7389511319568752,1.349799788718198,0,0.980990918851655,0.6828553865120004,0.9114531144746127,0,0.6393075273216563,823.992673992674,766.3736263736264,884.4322344322345,805.0549450549451,576.1904761904763,-0.274841,0.001038,0.956665,-0.336456,-0.000000,0.710297,315091.575092,149468644.688645,78403003.663004,78.811104,1,2,1,1,2,45.000000
2025-11-11 13:11:58.063,1.013930047063097,-0.1879963389219602,0,0.7765252548391758,0.7965329748152742,-0.09605734702110055,0,0.8809508973922928,0.978433857718551,0.907339601483844,0,1.086249469798927,0.7389511319568752,1.349799788718198,0,0.980990918851655,0.6828553865120004,0.9114531144746127,0,0.6393075273216563,666.0439560439561,811.5018315018315,834.8717948717949,639.4505494505495,701.5018315018315,-0.279663,0.003113,0.959229,-0.328979,-0.829926,-0.291595,315091.575092,149573406.593407,78424761.904762,78.218544,1,2,1,1,2,45.000000
2025-11-11 13:11:58.224,,,,,,,,,,,,,,,,,,,,,,,,,,,,,,,,,,,,,,,,,,/muse/elements/blink
2025-11-11 13:11:58.308,,,,,,,,,,,,,,,,,,,,,,,,,,,,,,,,,,,,,,,,,,/muse/elements/jaw_clench
2025-11-11 13:11:59.061,1.013930047063097,-0.1879963389219602,0,0.7765252548391758,0.7965329748152742,-0.09605734702110055,0,0.8809508973922928,0.978433857718551,0.907339601483844,0,1.086249469798927,0.7389511319568752,1.349799788718198,0,0.980990918851655,0.6828553865120004,0.9114531144746127,0,0.6393075273216563,813.5164835164835,779.6703296703297,785.7142857142858,816.7399267399268,976.3003663003664,-0.290588,-0.003418,0.951538,-0.927124,-1.779480,-0.568237,315091.575092,149340512.820513,78354652.014652,78.262253,1,2,1,1,2,45.000000
2025-11-11 13:11:59.542,,,,,,,,,,,,,,,,,,,,,,,,,,,,,,,,,,,,,,,,,,/muse/elements/blink
2025-11-11 13:11:59.629,,,,,,,,,,,,,,,,,,,,,,,,,,,,,,,,,,,,,,,,,,/muse/elements/jaw_clench
2025-11-11 13:12:00.067,1.013930047063097,-0.1879963389219602,0,0.7765252548391758,0.7965329748152742,-0.09605734702110055,0,0.8809508973922928,0.978433857718551,0.907339601483844,0,1.086249469798927,0.7389511319568752,1.349799788718198,0,0.980990918851655,0.6828553865120004,0.9114531144746127,0,0.6393075273216563,813.5164835164835,724.4688644688645,923.919413919414,798.2051282051282,612.8571428571429,-0.293762,-0.000610,0.955383,-1.031799,-1.704712,0.112152,315897.435897,149026227.106227,78285347.985348,78.920288,1,2,1,1,2,45.000000
2025-11-11 13:12:00.555,,,,,,,,,,,,,,,,,,,,,,,,,,,,,,,,,,,,,,,,,,/muse/elements/jaw_clench
2025-11-11 13:12:01.060,1.013930047063097,-0.1879963389219602,0,0.7765252548391758,0.7965329748152742,-0.09605734702110055,0,0.8809508973922928,0.978433857718551,0.907339601483844,0,1.086249469798927,0.7389511319568752,1.349799788718198,0,0.980990918851655,0.6828553865120004,0.9114531144746127,0,0.6393075273216563,826.4102564102565,812.7106227106227,762.7472527472528,806.6666666666667,776.4468864468864,-0.287903,0.003662,0.954468,-0.762634,-1.801910,0.067291,315897.435897,148736117.216117,78230549.450549,79.071373,1,2,1,1,2,45.000000
2025-11-11 13:12:01.784,,,,,,,,,,,,,,,,,,,,,,,,,,,,,,,,,,,,,,,,,,/muse/elements/blink
2025-11-11 13:12:02.059,0.7770811076955604,-0.1879963389219602,0,0.9108322339453739,0.4910443846646447,-0.09605734702110055,0,0.896721987019679,0.7202318030158269,0.907339601483844,0,0.8561589389980492,1.080449517351183,1.349799788718198,0,1.204275339882559,0.8084316411727056,0.9114531144746127,0,0.8728291627879833,819.96336996337,811.9047619047619,853.8095238095239,790.1465201465202,723.6630036630037,-0.289612,0.002502,0.954041,-0.456085,-2.355194,0.037384,315897.435897,148745787.545788,78282124.542125,78.833649,1,1,1,1,1,45.000000
2025-11-11 13:12:03.001,,,,,,,,,,,,,,,,,,,,,,,,,,,,,,,,,,,,,,,,,,/muse/elements/blink
2025-11-11 13:12:03.059,0.879486944226801,-0.1879963389219602,0,0.9108322339453739,0.5050763560940679,-0.09605734702110055,0,0.896721987019679,0.5547301674000998,0.907339601483844,0,0.8561589389980492,1.024184087980391,1.349799788718198,0,1.204275339882559,0.7492733443594488,0.9114531144746127,0,0.8728291627879833,814.7252747252747,785.3113553113553,889.6703296703297,791.3553113553114,589.8901098901099,-0.280884,0.011475,0.954712,-0.276642,-3.043060,0.231781,315897.435897,148755457.875458,78294212.454212,77.386642,1,1,1,1,1,45.000000
2025-11-11 13:12:04.021,,,,,,,,,,,,,,,,,,,,,,,,,,,,,,,,,,,,,,,,,,/muse/elements/blink
2025-11-11 13:12:04.059,0.879486944226801,-0.1879963389219602,0,0.9108322339453739,0.5050763560940679,-0.09605734702110055,0,0.896721987019679,0.5547301674000998,0.907339601483844,0,0.8561589389980492,1.024184087980391,1.349799788718198,0,1.204275339882559,0.7492733443594488,0.9114531144746127,0,0.8728291627879833,846.5567765567765,781.6849816849817,774.4322344322345,830.4395604395604,740.989010989011,-0.280151,-0.000061,0.962769,-0.381317,-1.457977,-0.553284,315091.575092,148663589.743590,78293406.593407,76.084366,1,1,1,1,1,45.000000
2025-11-11 13:12:05.016,,,,,,,,,,,,,,,,,,,,,,,,,,,,,,,,,,,,,,,,,,/muse/elements/blink
2025-11-11 13:12:05.059,0.879486944226801,-0.1879963389219602,0,0.9108322339453739,0.5050763560940679,-0.09605734702110055,0,0.896721987019679,0.5547301674000998,0.907339601483844,0,0.8561589389980492,1.024184087980391,1.349799788718198,0,1.204275339882559,0.7492733443594488,0.9114531144746127,0,0.8728291627879833,816.3369963369963,772.4175824175825,753.4798534798535,808.2783882783883,735.3479853479854,-0.278625,0.004517,0.961243,-0.672913,-0.807495,-0.620575,314285.714286,148703882.783883,78303882.783883,75.390625,1,2,1,1,2,45.000000
2025-11-11 13:12:06.059,0.879486944226801,-0.1879963389219602,0,0.9108322339453739,0.5050763560940679,-0.09605734702110055,0,0.896721987019679,0.5547301674000998,0.907339601483844,0,0.8561589389980492,1.024184087980391,1.349799788718198,0,1.204275339882559,0.7492733443594488,0.9114531144746127,0,0.8728291627879833,816.3369963369963,783.2967032967033,962.6007326007326,814.7252747252747,636.2271062271062,-0.286072,0.013306,0.959534,-0.381317,-2.385101,-0.396271,315897.435897,148667619.047619,78322417.582418,75.503677,1,2,1,1,2,45.000000
2025-11-11 13:12:06.142,,,,,,,,,,,,,,,,,,,,,,,,,,,,,,,,,,,,,,,,,,/muse/elements/jaw_clench
2025-11-11 13:12:06.333,,,,,,,,,,,,,,,,,,,,,,,,,,,,,,,,,,,,,,,,,,/muse/elements/jaw_clench
2025-11-11 13:12:06.567,,,,,,,,,,,,,,,,,,,,,,,,,,,,,,,,,,,,,,,,,,/muse/elements/blink
2025-11-11 13:12:06.652,,,,,,,,,,,,,,,,,,,,,,,,,,,,,,,,,,,,,,,,,,/muse/elements/jaw_clench
2025-11-11 13:12:07.065,0.879486944226801,-0.1879963389219602,0,0.9108322339453739,0.5050763560940679,-0.09605734702110055,0,0.896721987019679,0.5547301674000998,0.907339601483844,0,0.8561589389980492,1.024184087980391,1.349799788718198,0,1.204275339882559,0.7492733443594488,0.9114531144746127,0,0.8728291627879833,788.1318681318681,823.992673992674,766.3736263736264,789.7435897435897,998.4615384615385,-0.290161,0.005615,0.958618,-0.269165,-1.936493,-0.418701,315897.435897,148805421.245421,78378827.838828,75.400909,1,2,1,1,2,45.000000
2025-11-11 13:12:07.354,,,,,,,,,,,,,,,,,,,,,,,,,,,,,,,,,,,,,,,,,,/muse/elements/blink
2025-11-11 13:12:08.067,0.879486944226801,-0.1879963389219602,0,0.9108322339453739,0.5050763560940679,-0.09605734702110055,0,0.896721987019679,0.5547301674000998,0.907339601483844,0,0.8561589389980492,1.024184087980391,1.349799788718198,0,1.204275339882559,0.7492733443594488,0.9114531144746127,0,0.8728291627879833,792.1611721611722,756.7032967032967,766.7765567765568,787.7289377289378,956.959706959707,-0.292542,0.007874,0.960510,-0.844879,-2.908478,-0.583191,315091.575092,148808644.688645,78387692.307692,75.471207,1,2,1,1,2,45.000000
2025-11-11 13:12:08.587,,,,,,,,,,,,,,,,,,,,,,,,,,,,,,,,,,,,,,,,,,/muse/elements/blink
2025-11-11 13:12:08.587,,,,,,,,,,,,,,,,,,,,,,,,,,,,,,,,,,,,,,,,,,/muse/elements/jaw_clench
2025-11-11 13:12:09.067,0.879486944226801,-0.1879963389219602,0,0.9108322339453739,0.5050763560940679,-0.09605734702110055,0,0.896721987019679,0.5547301674000998,0.907339601483844,0,0.8561589389980492,1.024184087980391,1.349799788718198,0,1.204275339882559,0.7492733443594488,0.9114531144746127,0,0.8728291627879833,812.3076923076924,751.8681318681319,911.0256410256411,791.3553113553114,584.2490842490843,-0.288330,0.010864,0.956360,-0.351410,-2.938385,0.411224,315897.435897,148902930.402930,78436849.816850,74.367706,1,2,1,1,2,45.000000
2025-11-11 13:12:10.059,0.879486944226801,-0.1879963389219602,0,0.9108322339453739,0.5050763560940679,-0.09605734702110055,0,0.896721987019679,0.5547301674000998,0.907339601483844,0,0.8561589389980492,1.024184087980391,1.349799788718198,0,1.204275339882559,0.7492733443594488,0.9114531144746127,0,0.8728291627879833,785.7142857142858,819.5604395604396,811.5018315018315,774.0293040293041,767.985347985348,-0.287537,0.026855,0.960571,-0.471039,-2.661743,-0.732727,316703.296703,148844102.564103,78467472.527473,73.880646,1,2,1,1,2,45.000000
2025-11-11 13:12:10.588,,,,,,,,,,,,,,,,,,,,,,,,,,,,,,,,,,,,,,,,,,/muse/elements/blink
2025-11-11 13:12:11.068,0.3658983866419904,-0.1879963389219602,0,0.2891724683276023,0.06968718950902783,-0.09605734702110055,0,-0.03418462141823105,0.6680185011482754,0.907339601483844,0,0.6256112496877261,0.8380827033217717,1.349799788718198,0,0.6882984425033464,0.6420472968198649,0.9114531144746127,0,0.392005289467432,821.978021978022,761.941391941392,682.5641025641025,814.7252747252747,755.4945054945055,-0.269226,0.009644,0.958130,-1.084137,-3.439331,1.570129,315091.575092,148815897.435897,78467472.527473,74.778732,1,1,1,1,1,45.000000
2025-11-11 13:12:12.060,,,,,,,,,,,,,,,,,,,,,,,,,,,,,,,,,,,,,,,,,,/muse/elements/blink
2025-11-11 13:12:12.060,0.4019770570443821,-0.1879963389219602,0,0.2958619483305093,0.06892370330335414,-0.09605734702110055,0,-0.07990258842053294,0.596979571858454,0.907339601483844,0,0.5568247786419374,0.8307960219139553,1.349799788718198,0,0.6978767141856975,0.6630110018914839,0.9114531144746127,0,0.4041390634089865,852.1978021978023,800.6227106227107,851.7948717948718,838.901098901099,617.2893772893773,-0.281372,0.021912,0.962402,-0.448608,-1.308441,-0.104675,317509.157509,148632967.032967,78515018.315018,75.421928,1,1,1,1,1,45.000000
2025-11-11 13:12:13.060,0.4019770570443821,-0.1879963389219602,0,0.2958619483305093,0.06892370330335414,-0.09605734702110055,0,-0.07990258842053294,0.596979571858454,0.907339601483844,0,0.5568247786419374,0.8307960219139553,1.349799788718198,0,0.6978767141856975,0.6630110018914839,0.9114531144746127,0,0.4041390634089865,816.7399267399268,805.0549450549451,1088.315018315018,814.3223443223443,757.9120879120879,-0.267700,0.000793,0.959717,-0.979462,-1.839294,-1.899109,314285.714286,148532234.432234,78489230.769231,75.421928,1,2,1,1,2,45.000000
2025-11-11 13:12:13.171,,,,,,,,,,,,,,,,,,,,,,,,,,,,,,,,,,,,,,,,,,/muse/elements/jaw_clench
2025-11-11 13:12:13.362,,,,,,,,,,,,,,,,,,,,,,,,,,,,,,,,,,,,,,,,,,/muse/elements/blink
2025-11-11 13:12:13.555,,,,,,,,,,,,,,,,,,,,,,,,,,,,,,,,,,,,,,,,,,/muse/elements/jaw_clench
2025-11-11 13:12:14.060,0.4019770570443821,-0.1879963389219602,0,0.2958619483305093,0.06892370330335414,-0.09605734702110055,0,-0.07990258842053294,0.596979571858454,0.907339601483844,0,0.5568247786419374,0.8307960219139553,1.349799788718198,0,0.6978767141856975,0.6630110018914839,0.9114531144746127,0,0.4041390634089865,797.8021978021978,803.8461538461539,1032.307692307692,804.6520146520147,689.0109890109891,-0.286438,0.017944,0.958984,-0.583191,-1.891632,0.239258,314285.714286,148543516.483516,78537582.417582,75.449562,1,2,1,2,2,45.000000
2025-11-11 13:12:14.066,,,,,,,,,,,,,,,,,,,,,,,,,,,,,,,,,,,,,,,,,,/muse/elements/jaw_clench
2025-11-11 13:12:15.060,0.4019770570443821,-0.2404816753704302,0,0.2958619483305093,0.06892370330335414,-0.07080905356043675,0,-0.07990258842053294,0.596979571858454,0.3799871693044818,0,0.5568247786419374,0.8307960219139553,1.496522654543442,0,0.6978767141856975,0.6630110018914839,1.562741116485466,0,0.4041390634089865,835.6776556776557,758.3150183150184,691.8315018315019,819.96336996337,539.5238095238095,-0.266724,0.012512,0.959717,-0.725250,-2.228088,-0.740204,315091.575092,148588644.688645,78633479.853480,74.938538,1,2,1,2,2,45.000000
2025-11-11 13:12:15.110,,,,,,,,,,,,,,,,,,,,,,,,,,,,,,,,,,,,,,,,,,/muse/elements/blink
2025-11-11 13:12:16.060,0.4019770570443821,-0.2404816753704302,0,0.2958619483305093,0.06892370330335414,-0.07080905356043675,0,-0.07990258842053294,0.596979571858454,0.3799871693044818,0,0.5568247786419374,0.8307960219139553,1.496522654543442,0,0.6978767141856975,0.6630110018914839,1.562741116485466,0,0.4041390634089865,808.2783882783883,784.1025641025641,713.1868131868132,805.0549450549451,746.6300366300367,-0.278015,0.011658,0.962463,0.418701,-2.257996,-1.899109,315897.435897,148595897.435897,78618168.498168,75.326721,1,2,1,2,2,45.000000
2025-11-11 13:12:17.059,0.03454814993250286,-0.2059717760099485,0,0.2315771666461988,-0.2045988966251721,-0.05886890780218183,0,0.007993546945337607,0.7831546199108277,0.3673839562442468,0,0.5112912819074131,0.9014107149286351,1.525347812309653,0,1.018206154521696,0.7979692114080797,1.588383782962678,0,0.5807023331996101,855.0183150183151,785.3113553113553,610.8424908424909,847.3626373626374,722.4542124542124,-0.280396,0.010071,0.964600,-0.717773,-1.622467,0.545807,315091.575092,148569304.029304,78629450.549451,74.618202,1,1,1,2,1,45.000000
2025-11-11 13:12:17.098,,,,,,,,,,,,,,,,,,,,,,,,,,,,,,,,,,,,,,,,,,/muse/elements/blink
2025-11-11 13:12:17.712,,,,,,,,,,,,,,,,,,,,,,,,,,,,,,,,,,,,,,,,,,/muse/elements/jaw_clench
2025-11-11 13:12:18.063,0.04778105180898277,-0.2059717760099485,0,0.05848631709981306,-0.1913283646401184,-0.05886890780218183,0,-0.3614804356276098,0.5900198225932037,0.3673839562442468,0,0.3800546944269417,0.905198788809897,1.525347812309653,0,1.022395267424736,0.6709970555954694,1.588383782962678,0,0.4962833300877249,690.6227106227107,820.7692307692308,651.941391941392,703.5164835164835,695.8608058608058,-0.279297,0.010864,0.959290,-1.024323,-2.138367,0.321503,315091.575092,148631355.311355,78673772.893773,74.055954,1,1,1,2,1,45.000000
2025-11-11 13:12:18.244,,,,,,,,,,,,,,,,,,,,,,,,,,,,,,,,,,,,,,,,,,/muse/elements/blink
2025-11-11 13:12:19.060,0.04778105180898277,-0.2059717760099485,0,0.05848631709981306,-0.1913283646401184,-0.05886890780218183,0,-0.3614804356276098,0.5900198225932037,0.3673839562442468,0,0.3800546944269417,0.905198788809897,1.525347812309653,0,1.022395267424736,0.6709970555954694,1.588383782962678,0,0.4962833300877249,809.4871794871796,780.4761904761905,475.0549450549451,799.8168498168499,1155.604395604396,-0.269775,0.011230,0.960938,-0.007477,-1.689758,-0.366364,315897.435897,148732087.912088,78716483.516484,74.497711,1,1,1,2,1,45.000000
2025-11-11 13:12:19.729,,,,,,,,,,,,,,,,,,,,,,,,,,,,,,,,,,,,,,,,,,/muse/elements/blink
2025-11-11 13:12:20.060,0.04778105180898277,-0.2059717760099485,0,0.05848631709981306,-0.1913283646401184,-0.05886890780218183,0,-0.3614804356276098,0.5900198225932037,0.3673839562442468,0,0.3800546944269417,0.905198788809897,1.525347812309653,0,1.022395267424736,0.6709970555954694,1.588383782962678,0,0.4962833300877249,810.6959706959707,780.0732600732601,471.0256410256411,819.1575091575091,1041.575091575092,-0.263733,0.001038,0.962463,-0.620575,-1.742096,-0.628052,316703.296703,148781245.421245,78733406.593407,74.913429,1,2,1,2,2,45.000000
2025-11-11 13:12:20.476,,,,,,,,,,,,,,,,,,,,,,,,,,,,,,,,,,,,,,,,,,/muse/elements/blink
2025-11-11 13:12:21.061,0.04778105180898277,-0.2059717760099485,0,0.05848631709981306,-0.1913283646401184,-0.05886890780218183,0,-0.3614804356276098,0.5900198225932037,0.3673839562442468,0,0.3800546944269417,0.905198788809897,1.525347812309653,0,1.022395267424736,0.6709970555954694,1.588383782962678,0,0.4962833300877249,799.0109890109891,801.025641025641,695.0549450549451,780.0732600732601,579.8168498168499,-0.271973,0.003723,0.965576,-1.794434,-2.265472,-1.854248,315091.575092,148673260.073260,78735018.315018,75.080711,1,2,1,2,2,45.000000
2025-11-11 13:12:22.060,0.04778105180898277,-0.1295320296172333,0,0.2185150510111687,-0.1913283646401184,0.04663998621026614,0,0.05249958556300068,0.5900198225932037,0.2810423458846664,0,0.3679137182474073,0.905198788809897,1.300154283184932,0,0.8586870681533312,0.6709970555954694,1.224563180057325,0,1.038875591716139,810.6959706959707,801.025641025641,602.3809523809524,797.8021978021978,653.1501831501831,-0.265564,-0.000549,0.967407,-0.328979,-1.682281,1.869202,315091.575092,148615238.095238,78746300.366300,75.080711,1,2,1,2,2,45.000000
2025-11-11 13:12:22.517,,,,,,,,,,,,,,,,,,,,,,,,,,,,,,,,,,,,,,,,,,/muse/elements/blink
2025-11-11 13:12:22.687,,,,,,,,,,,,,,,,,,,,,,,,,,,,,,,,,,,,,,,,,,/muse/elements/jaw_clench
2025-11-11 13:12:23.060,0.01047918246328211,-0.1295320296172333,0,0.2519576801193821,0.2436155028945786,0.04663998621026614,0,0.2217939922277623,0.1781380383775162,0.2810423458846664,0,0.4708726386390668,0.8739574787260792,1.300154283184932,0,0.9081636914891337,0.8572478011802048,1.224563180057325,0,0.9817830718121214,832.4542124542124,788.1318681318681,558.8644688644689,813.1135531135532,723.2600732600732,-0.264954,0.008240,0.959351,-0.687866,-1.674805,-0.276642,314285.714286,148530622.710623,78764835.164835,75.080711,1,1,1,1,1,45.000000
2025-11-11 13:12:23.809,,,,,,,,,,,,,,,,,,,,,,,,,,,,,,,,,,,,,,,,,,/muse/elements/blink
2025-11-11 13:12:24.060,-0.1258219299818436,0.1064730172587221,0,0.2966271264038358,0.2977013956873267,0.2990352446359376,0,0.329022864696052,0.1533109258497423,0.7625080716124684,0,0.2939169011265814,0.863466939903817,1.447627137551513,0,0.9790575120747789,0.8693865340405154,1.179754174282347,0,0.9499473227573858,794.5787545787546,804.6520146520147,626.5567765567765,794.5787545787546,567.3260073260074,-0.268494,-0.002686,0.963562,-0.904694,-1.667328,-0.755157,316703.296703,148510476.190476,78776923.076923,75.080711,1,1,1,1,1,45.000000
2025-11-11 13:12:24.426,,,,,,,,,,,,,,,,,,,,,,,,,,,,,,,,,,,,,,,,,,/muse/elements/blink
2025-11-11 13:12:25.060,-0.1258219299818436,0.2382011074234632,0,0.2966271264038358,0.2977013956873267,0.4286229603852819,0,0.329022864696052,0.1533109258497423,0.8649625403564449,0,0.2939169011265814,0.863466939903817,1.33700105281563,0,0.9790575120747789,0.8693865340405154,1.182740249645267,0,0.9499473227573858,851.3919413919414,787.7289377289378,631.7948717948718,838.4981684981685,716.007326007326,-0.262268,0.001221,0.962708,-0.859833,-2.385101,0.089722,315091.575092,148537875.457875,78825274.725275,75.393799,1,2,1,1,2,45.000000
2025-11-11 13:12:25.147,,,,,,,,,,,,,,,,,,,,,,,,,,,,,,,,,,,,,,,,,,/muse/elements/blink
2025-11-11 13:12:26.060,-0.1258219299818436,0.3050403402790539,0,0.2966271264038358,0.2977013956873267,0.5858544606782993,0,0.329022864696052,0.1533109258497423,0.7512002272614087,0,0.2939169011265814,0.863466939903817,1.291860716097056,0,0.9790575120747789,0.8693865340405154,1.020526247280469,0,0.9499473227573858,805.8608058608058,833.6630036630037,575.3846153846154,789.3406593406594,780.0732600732601,-0.267212,0.007446,0.965759,0.037384,-2.945862,0.553284,315091.575092,148499194.139194,78781758.241758,73.650604,1,2,1,1,2,45.000000
2025-11-11 13:12:26.590,,,,,,,,,,,,,,,,,,,,,,,,,,,,,,,,,,,,,,,,,,/muse/elements/blink
2025-11-11 13:12:27.059,-0.1258219299818436,0.02286939181901359,0,0.2966271264038358,0.2977013956873267,0.3427623383456121,0,0.329022864696052,0.1533109258497423,0.5668104743077604,0,0.2939169011265814,0.863466939903817,1.251815873405178,0,0.9790575120747789,0.8693865340405154,1.16159173811989,0,0.9499473227573858,812.7106227106227,791.3553113553114,623.3333333333334,807.4725274725275,645.0915750915751,-0.266113,0.008850,0.962708,-0.628052,-2.160797,0.785065,315897.435897,148499194.139194,78804322.344322,73.044014,1,2,1,1,2,45.000000
2025-11-11 13:12:27.565,,,,,,,,,,,,,,,,,,,,,,,,,,,,,,,,,,,,,,,,,,/muse/elements/blink
2025-11-11 13:12:28.062,-0.1258219299818436,0.1498914708005273,0,0.2966271264038358,0.2977013956873267,0.282236631207068,0,0.329022864696052,0.1533109258497423,0.4105681335746575,0,0.2939169011265814,0.863466939903817,1.227544623257665,0,0.9790575120747789,0.8693865340405154,1.301740600937493,0,0.9499473227573858,693.4432234432235,810.2930402930403,568.5347985347986,692.2344322344322,859.047619047619,-0.264893,0.004822,0.963928,-0.882263,-1.951447,-0.680389,315897.435897,148713553.113553,78874432.234432,74.290604,1,2,1,1,2,45.000000
2025-11-11 13:12:28.181,,,,,,,,,,,,,,,,,,,,,,,,,,,,,,,,,,,,,,,,,,/muse/elements/blink
2025-11-11 13:12:28.394,,,,,,,,,,,,,,,,,,,,,,,,,,,,,,,,,,,,,,,,,,/muse/elements/jaw_clench
2025-11-11 13:12:29.010,,,,,,,,,,,,,,,,,,,,,,,,,,,,,,,,,,,,,,,,,,/muse/elements/blink
2025-11-11 13:12:29.061,-0.1258219299818436,0.1498914708005273,0,0.2966271264038358,0.2977013956873267,0.282236631207068,0,0.329022864696052,0.1533109258497423,0.4105681335746575,0,0.2939169011265814,0.863466939903817,1.227544623257665,0,0.9790575120747789,0.8693865340405154,1.301740600937493,0,0.9499473227573858,832.8571428571429,810.6959706959707,519.7802197802198,823.992673992674,810.2930402930403,-0.268127,0.003296,0.962646,-0.628052,-1.772003,0.785065,314285.714286,148697435.897436,78859120.879121,74.885063,1,2,1,1,2,45.000000
2025-11-11 13:12:29.712,,,,,,,,,,,,,,,,,,,,,,,,,,,,,,,,,,,,,,,,,,/muse/elements/blink
2025-11-11 13:12:30.062,-0.1258219299818436,0.1020846815176234,0,0.2966271264038358,0.2977013956873267,0.435514206354425,0,0.329022864696052,0.1533109258497423,0.4173126049246285,0,0.2939169011265814,0.863466939903817,1.157880712676486,0,0.9790575120747789,0.8693865340405154,1.199762611449867,0,0.9499473227573858,799.0109890109891,785.7142857142858,671.2820512820513,792.1611721611722,569.7435897435897,-0.272583,0.002625,0.964966,-0.643005,-1.936493,0.351410,314285.714286,148655531.135531,78856703.296703,74.666183,1,2,1,2,2,45.000000
2025-11-11 13:12:30.606,,,,,,,,,,,,,,,,,,,,,,,,,,,,,,,,,,,,,,,,,,/muse/elements/blink
2025-11-11 13:12:31.060,-0.1258219299818436,0.1780539274334378,0,0.2966271264038358,0.2977013956873267,0.3544693041761185,0,0.329022864696052,0.1533109258497423,0.3423871439767638,0,0.2939169011265814,0.863466939903817,1.150011683403005,0,0.9790575120747789,0.8693865340405154,1.188869840862413,0,0.9499473227573858,810.6959706959707,796.1904761904763,756.7032967032967,802.2344322344322,715.2014652014652,-0.285217,-0.017700,0.956665,-1.166382,0.201874,0.598145,315897.435897,148464542.124542,78896190.476190,75.629173,1,2,1,2,2,45.000000
2025-11-11 13:12:31.543,,,,,,,,,,,,,,,,,,,,,,,,,,,,,,,,,,,,,,,,,,/muse/elements/blink
2025-11-11 13:12:31.629,,,,,,,,,,,,,,,,,,,,,,,,,,,,,,,,,,,,,,,,,,/muse/elements/jaw_clench
2025-11-11 13:12:32.060,-0.1258219299818436,0.1780539274334378,0,0.2966271264038358,0.2977013956873267,0.3544693041761185,0,0.329022864696052,0.1533109258497423,0.3423871439767638,0,0.2939169011265814,0.863466939903817,1.150011683403005,0,0.9790575120747789,0.8693865340405154,1.188869840862413,0,0.9499473227573858,787.7289377289378,791.7582417582418,550.4029304029305,783.6996336996338,608.021978021978,-0.275208,-0.013794,0.966614,0.074768,-2.960815,-0.762634,315091.575092,148512087.912088,78950183.150183,76.039986,1,2,1,2,2,45.000000
2025-11-11 13:12:32.351,,,,,,,,,,,,,,,,,,,,,,,,,,,,,,,,,,,,,,,,,,/muse/elements/blink
2025-11-11 13:12:33.066,-0.1258219299818436,0.1780539274334378,0,0.2966271264038358,0.2977013956873267,0.3544693041761185,0,0.329022864696052,0.1533109258497423,0.3423871439767638,0,0.2939169011265814,0.863466939903817,1.150011683403005,0,0.9790575120747789,0.8693865340405154,1.188869840862413,0,0.9499473227573858,803.040293040293,792.5641025641025,689.4139194139194,793.3699633699634,602.7838827838827,-0.273743,-0.012573,0.956787,1.697235,-0.433655,4.089813,315091.575092,148401684.981685,78950989.010989,76.039986,1,2,1,1,2,45.000000
2025-11-11 13:12:33.652,,,,,,,,,,,,,,,,,,,,,,,,,,,,,,,,,,,,,,,,,,/muse/elements/blink
2025-11-11 13:12:34.059,-0.1258219299818436,0.1780539274334378,0,0.2966271264038358,0.2977013956873267,0.3544693041761185,0,0.329022864696052,0.1533109258497423,0.3423871439767638,0,0.2939169011265814,0.863466939903817,1.150011683403005,0,0.9790575120747789,0.8693865340405154,1.188869840862413,0,0.9499473227573858,780.0732600732601,751.8681318681319,419.047619047619,781.6849816849817,1114.102564102564,-0.267578,-0.011719,0.966736,-0.792542,-2.512207,-0.074768,315897.435897,148238095.238095,78928424.908425,76.039986,1,2,1,1,2,45.000000
2025-11-11 13:12:34.268,,,,,,,,,,,,,,,,,,,,,,,,,,,,,,,,,,,,,,,,,,/muse/elements/blink
2025-11-11 13:12:35.060,-0.1258219299818436,0.1780539274334378,0,0.2966271264038358,0.2977013956873267,0.3544693041761185,0,0.329022864696052,0.1533109258497423,0.3423871439767638,0,0.2939169011265814,0.863466939903817,1.150011683403005,0,0.9790575120747789,0.8693865340405154,1.188869840862413,0,0.9499473227573858,695.4578754578755,782.4908424908425,573.7728937728938,704.7252747252747,716.8131868131868,-0.272522,-0.013916,0.964233,-0.067291,-2.676697,-0.231781,313479.853480,148388791.208791,78967912.087912,76.388321,1,2,1,1,2,45.000000
2025-11-11 13:12:35.194,,,,,,,,,,,,,,,,,,,,,,,,,,,,,,,,,,,,,,,,,,/muse/elements/blink
2025-11-11 13:12:36.122,-0.1258219299818436,0.1780539274334378,0,0.2966271264038358,0.2977013956873267,0.3544693041761185,0,0.329022864696052,0.1533109258497423,0.3423871439767638,0,0.2939169011265814,0.863466939903817,1.150011683403005,0,0.9790575120747789,0.8693865340405154,1.188869840862413,0,0.9499473227573858,816.7399267399268,811.5018315018315,640.2564102564103,802.2344322344322,595.5311355311355,-0.271240,-0.021057,0.958679,-0.052338,-1.742096,0.426178,314285.714286,148355750.915751,78982417.582418,79.470604,1,2,1,1,2,45.000000
2025-11-11 13:12:36.596,,,,,,,,,,,,,,,,,,,,,,,,,,,,,,,,,,,,,,,,,,/muse/elements/blink
2025-11-11 13:12:37.096,-0.1258219299818436,0.07399811753233139,0,0.2966271264038358,0.2977013956873267,0.1352956729073735,0,0.329022864696052,0.1533109258497423,0.4787270647829563,0,0.2939169011265814,0.863466939903817,1.335645775834813,0,0.9790575120747789,0.8693865340405154,1.228977505585021,0,0.9499473227573858,793.3699633699634,791.7582417582418,445.2380952380952,804.6520146520147,1093.956043956044,-0.273254,-0.017151,0.971558,-0.986938,-2.198181,-1.188812,315091.575092,148297728.937729,78926813.186813,82.673866,1,2,1,1,2,45.000000
2025-11-11 13:12:37.599,,,,,,,,,,,,,,,,,,,,,,,,,,,,,,,,,,,,,,,,,,/muse/elements/blink
2025-11-11 13:12:38.076,-0.1258219299818436,0.2873401915816108,0,0.2966271264038358,0.2977013956873267,0.2231278083253472,0,0.329022864696052,0.1533109258497423,0.3201306900098637,0,0.2939169011265814,0.863466939903817,1.16944208829407,0,0.9790575120747789,0.8693865340405154,1.329176768541255,0,0.9499473227573858,820.3663003663004,802.6373626373627,510.9157509157509,791.7582417582418,817.5457875457876,-0.281433,-0.020325,0.956299,-0.381317,-2.190704,-0.822449,315091.575092,148188131.868132,78917948.717949,76.802757,1,2,1,1,2,45.000000
2025-11-11 13:12:38.444,,,,,,,,,,,,,,,,,,,,,,,,,,,,,,,,,,,,,,,,,,/muse/elements/blink
2025-11-11 13:12:39.159,-0.1258219299818436,0.3193102474442072,0,0.2966271264038358,0.2977013956873267,0.284778304369059,0,0.329022864696052,0.1533109258497423,0.3116567071204718,0,0.2939169011265814,0.863466939903817,1.056709815260108,0,0.9790575120747789,0.8693865340405154,1.32445835123549,0,0.9499473227573858,868.3150183150184,764.3589743589744,698.2783882783883,887.6556776556777,749.8534798534798,-0.273926,-0.023499,0.951416,0.814972,-0.904694,1.061707,316703.296703,148259047.619048,79013040.293040,76.894318,1,2,1,1,2,45.000000
2025-11-11 13:12:39.161,,,,,,,,,,,,,,,,,,,,,,,,,,,,,,,,,,,,,,,,,,/muse/elements/blink
2025-11-11 13:12:40.003,,,,,,,,,,,,,,,,,,,,,,,,,,,,,,,,,,,,,,,,,,/muse/elements/blink
2025-11-11 13:12:40.120,-0.1258219299818436,0.3193102474442072,0,0.2966271264038358,0.2977013956873267,0.284778304369059,0,0.329022864696052,0.1533109258497423,0.3116567071204718,0,0.2939169011265814,0.863466939903817,1.056709815260108,0,0.9790575120747789,0.8693865340405154,1.32445835123549,0,0.9499473227573858,807.0695970695971,809.4871794871796,588.6813186813187,797.8021978021978,699.0842490842491,-0.275696,-0.007324,0.963562,0.792542,-0.044861,3.102875,315091.575092,148327545.787546,78955824.175824,77.800346,1,2,1,1,2,45.000000
2025-11-11 13:12:40.954,,,,,,,,,,,,,,,,,,,,,,,,,,,,,,,,,,,,,,,,,,/muse/elements/blink
2025-11-11 13:12:41.078,-0.1258219299818436,0.6747482751761429,0,0.2966271264038358,0.2977013956873267,0.3239427192156503,0,0.329022864696052,0.1533109258497423,0.2677443892030963,0,0.2939169011265814,0.863466939903817,1.333935600080652,0,0.9790575120747789,0.8693865340405154,1.181069891611942,0,0.9499473227573858,811.9047619047619,782.893772893773,563.2967032967033,811.9047619047619,694.2490842490843,-0.281738,-0.005005,0.963013,0.994415,-1.794434,1.831818,315091.575092,148178461.538462,78965494.505495,78.058090,1,2,1,2,2,45.000000
2025-11-11 13:12:42.152,-0.1258219299818436,0.6747482751761429,0,0.2966271264038358,0.2977013956873267,0.3239427192156503,0,0.329022864696052,0.1533109258497423,0.2677443892030963,0,0.2939169011265814,0.863466939903817,1.333935600080652,0,0.9790575120747789,0.8693865340405154,1.181069891611942,0,0.9499473227573858,795.7875457875458,796.1904761904763,684.1758241758242,796.1904761904763,589.8901098901099,-0.284668,-0.003662,0.957275,-0.807495,-1.876678,-0.074768,315091.575092,148082564.102564,78967106.227106,78.058090,1,2,1,2,2,45.000000
2025-11-11 13:12:42.515,,,,,,,,,,,,,,,,,,,,,,,,,,,,,,,,,,,,,,,,,,/muse/elements/blink
2025-11-11 13:12:43.131,-0.1258219299818436,0.6747482751761429,0,0.2966271264038358,0.2977013956873267,0.3239427192156503,0,0.329022864696052,0.1533109258497423,0.2677443892030963,0,0.2939169011265814,0.863466939903817,1.333935600080652,0,0.9790575120747789,0.8693865340405154,1.181069891611942,0,0.9499473227573858,805.4578754578755,786.1172161172161,738.5714285714286,799.8168498168499,677.3260073260074,-0.292480,-0.006104,0.949768,-0.403748,-0.179443,-2.781372,315897.435897,148027765.567766,78901025.641026,77.018440,1,2,1,2,2,45.000000
2025-11-11 13:12:43.250,,,,,,,,,,,,,,,,,,,,,,,,,,,,,,,,,,,,,,,,,,/muse/elements/jaw_clench
2025-11-11 13:12:43.729,,,,,,,,,,,,,,,,,,,,,,,,,,,,,,,,,,,,,,,,,,/muse/elements/jaw_clench
2025-11-11 13:12:44.098,-0.1258219299818436,0.6747482751761429,0,0.2966271264038358,0.2977013956873267,0.3239427192156503,0,0.329022864696052,0.1533109258497423,0.2677443892030963,0,0.2939169011265814,0.863466939903817,1.333935600080652,0,0.9790575120747789,0.8693865340405154,1.181069891611942,0,0.9499473227573858,865.8974358974359,793.7728937728938,596.3369963369963,853.0036630036631,681.3553113553114,-0.305176,-0.012512,0.951233,-0.388794,-2.549591,0.927124,315091.575092,147829523.809524,78831721.611722,75.568283,1,2,1,2,2,45.000000
2025-11-11 13:12:44.221,,,,,,,,,,,,,,,,,,,,,,,,,,,,,,,,,,,,,,,,,,/muse/elements/blink
2025-11-11 13:12:44.719,,,,,,,,,,,,,,,,,,,,,,,,,,,,,,,,,,,,,,,,,,/muse/elements/blink
2025-11-11 13:12:45.084,-0.1258219299818436,0.6747482751761429,0,0.2966271264038358,0.2977013956873267,0.3239427192156503,0,0.329022864696052,0.1533109258497423,0.2677443892030963,0,0.2939169011265814,0.863466939903817,1.333935600080652,0,0.9790575120747789,0.8693865340405154,1.181069891611942,0,0.9499473227573858,794.5787545787546,799.4139194139194,787.7289377289378,787.3260073260074,641.0622710622711,-0.304016,-0.011963,0.953125,-1.114044,-1.704712,0.343933,315091.575092,147819853.479853,78847838.827839,75.935944,1,2,1,2,2,45.000000
2025-11-11 13:12:45.853,,,,,,,,,,,,,,,,,,,,,,,,,,,,,,,,,,,,,,,,,,/muse/elements/blink
2025-11-11 13:12:46.101,-0.1258219299818436,-0.1045214513639456,0,0.2966271264038358,0.2977013956873267,0.2236035604027017,0,0.329022864696052,0.1533109258497423,0.678540949274372,0,0.2939169011265814,0.863466939903817,1.504693032829332,0,0.9790575120747789,0.8693865340405154,1.442856213355254,0,0.9499473227573858,789.3406593406594,808.6813186813187,696.2637362637363,778.4615384615385,697.4725274725275,-0.296204,-0.029236,0.953674,-1.981354,-1.772003,-0.231781,315091.575092,147806153.846154,78808351.648352,75.767937,1,2,1,2,2,45.000000
2025-11-11 13:12:46.606,,,,,,,,,,,,,,,,,,,,,,,,,,,,,,,,,,,,,,,,,,/muse/elements/blink
2025-11-11 13:12:46.606,,,,,,,,,,,,,,,,,,,,,,,,,,,,,,,,,,,,,,,,,,/muse/elements/jaw_clench
2025-11-11 13:12:47.099,-0.1258219299818436,-0.02287483586402883,0,0.2966271264038358,0.2977013956873267,0.266923616376167,0,0.329022864696052,0.1533109258497423,0.6222033648250387,0,0.2939169011265814,0.863466939903817,1.469246405439035,0,0.9790575120747789,0.8693865340405154,1.420917609315848,0,0.9499473227573858,804.2490842490843,779.6703296703297,635.0183150183151,790.1465201465202,780.8791208791209,-0.300232,-0.028381,0.955994,-0.014954,-2.669220,0.216827,315091.575092,147877875.457875,78829304.029304,76.742897,1,2,1,2,2,45.000000
2025-11-11 13:12:47.724,,,,,,,,,,,,,,,,,,,,,,,,,,,,,,,,,,,,,,,,,,/muse/elements/blink
2025-11-11 13:12:48.097,-0.1258219299818436,0.0826117983876755,0,0.2966271264038358,0.2977013956873267,0.3450927012626538,0,0.329022864696052,0.1533109258497423,0.4697660762835725,0,0.2939169011265814,0.863466939903817,1.403439922403881,0,0.9790575120747789,0.8693865340405154,1.416567360960965,0,0.9499473227573858,805.0549450549451,783.2967032967033,792.967032967033,792.1611721611722,676.9230769230769,-0.298767,-0.032959,0.954407,-0.246735,-2.108459,0.044861,315897.435897,147750549.450549,78786593.406593,76.333801,1,2,1,2,2,45.000000
2025-11-11 13:12:48.702,,,,,,,,,,,,,,,,,,,,,,,,,,,,,,,,,,,,,,,,,,/muse/elements/blink
2025-11-11 13:12:49.078,-0.1258219299818436,0.0826117983876755,0,0.2966271264038358,0.2977013956873267,0.3450927012626538,0,0.329022864696052,0.1533109258497423,0.4697660762835725,0,0.2939169011265814,0.863466939903817,1.403439922403881,0,0.9790575120747789,0.8693865340405154,1.416567360960965,0,0.9499473227573858,817.1428571428571,796.996336996337,612.8571428571429,810.2930402930403,678.5347985347986,-0.301331,-0.033386,0.946777,-0.037384,-2.818756,-0.448608,315897.435897,147694139.194139,78768864.468864,76.138931,1,2,1,2,2,45.000000
2025-11-11 13:12:49.560,,,,,,,,,,,,,,,,,,,,,,,,,,,,,,,,,,,,,,,,,,/muse/elements/blink
2025-11-11 13:12:50.150,-0.1258219299818436,-0.1949619471751677,0,0.2966271264038358,0.2977013956873267,0.1483364482931475,0,0.329022864696052,0.1533109258497423,0.3238873836579096,0,0.2939169011265814,0.863466939903817,1.326130534673223,0,0.9790575120747789,0.8693865340405154,1.226807354691652,0,0.9499473227573858,809.0842490842491,776.0439560439561,694.6520146520147,794.5787545787546,616.080586080586,-0.303589,-0.031494,0.950562,-0.777588,-3.043060,-0.291595,315091.575092,147753772.893773,78815604.395604,76.135979,1,2,1,2,2,45.000000
2025-11-11 13:12:50.388,,,,,,,,,,,,,,,,,,,,,,,,,,,,,,,,,,,,,,,,,,/muse/elements/blink
2025-11-11 13:12:51.121,-0.1258219299818436,-0.2954121646542693,0,0.2966271264038358,0.2977013956873267,0.1068248288600229,0,0.329022864696052,0.1533109258497423,0.2737939688262709,0,0.2939169011265814,0.863466939903817,1.30785692036687,0,0.9790575120747789,0.8693865340405154,1.251881366396904,0,0.9499473227573858,877.5824175824176,784.5054945054945,746.6300366300367,877.985347985348,585.4578754578755,-0.302856,-0.040222,0.950317,-0.800018,-2.527161,0.269165,314285.714286,147842417.582418,78862344.322344,76.135979,1,2,1,2,2,45.000000
2025-11-11 13:12:51.242,,,,,,,,,,,,,,,,,,,,,,,,,,,,,,,,,,,,,,,,,,/muse/elements/blink
2025-11-11 13:12:52.137,-0.1258219299818436,-0.2954121646542693,0,0.2966271264038358,0.2977013956873267,0.1068248288600229,0,0.329022864696052,0.1533109258497423,0.2737939688262709,0,0.2939169011265814,0.863466939903817,1.30785692036687,0,0.9790575120747789,0.8693865340405154,1.251881366396904,0,0.9499473227573858,708.7545787545788,772.014652014652,543.956043956044,711.978021978022,896.5201465201466,-0.310974,-0.036621,0.954834,-0.321503,-1.472931,0.014954,315897.435897,147815824.175824,78870402.930403,75.719025,1,2,1,2,2,45.000000
2025-11-11 13:12:52.370,,,,,,,,,,,,,,,,,,,,,,,,,,,,,,,,,,,,,,,,,,/muse/elements/blink
2025-11-11 13:12:53.102,,,,,,,,,,,,,,,,,,,,,,,,,,,,,,,,,,,,,,,,,,/muse/elements/blink
2025-11-11 13:12:53.104,-0.1258219299818436,-0.2954121646542693,0,0.2966271264038358,0.2977013956873267,0.1068248288600229,0,0.329022864696052,0.1533109258497423,0.2737939688262709,0,0.2939169011265814,0.863466939903817,1.30785692036687,0,0.9790575120747789,0.8693865340405154,1.251881366396904,0,0.9499473227573858,814.3223443223443,796.1904761904763,631.7948717948718,811.9047619047619,718.4249084249085,-0.302185,-0.037720,0.946533,-0.665436,-2.295380,-0.351410,315897.435897,147702197.802198,78822857.142857,75.192879,1,2,1,2,2,45.000000
2025-11-11 13:12:54.086,,,,,,,,,,,,,,,,,,,,,,,,,,,,,,,,,,,,,,,,,,/muse/elements/blink
2025-11-11 13:12:54.095,-0.1258219299818436,-0.2954121646542693,0,0.2966271264038358,0.2977013956873267,0.1068248288600229,0,0.329022864696052,0.1533109258497423,0.2737939688262709,0,0.2939169011265814,0.863466939903817,1.30785692036687,0,0.9790575120747789,0.8693865340405154,1.251881366396904,0,0.9499473227573858,824.7985347985348,732.9304029304029,722.4542124542124,813.919413919414,589.0842490842491,-0.297852,-0.039978,0.962769,-0.306549,-2.930908,-0.134583,315091.575092,147763443.223443,78822857.142857,76.104813,1,2,1,2,2,45.000000
2025-11-11 13:12:54.979,,,,,,,,,,,,,,,,,,,,,,,,,,,,,,,,,,,,,,,,,,/muse/elements/blink
2025-11-11 13:12:55.091,-0.1258219299818436,-0.2954121646542693,0,0.2966271264038358,0.2977013956873267,0.1068248288600229,0,0.329022864696052,0.1533109258497423,0.2737939688262709,0,0.2939169011265814,0.863466939903817,1.30785692036687,0,0.9790575120747789,0.8693865340405154,1.251881366396904,0,0.9499473227573858,821.1721611721612,761.1355311355312,751.4652014652015,812.3076923076924,696.2637362637363,-0.297729,-0.041504,0.955139,-0.814972,-0.418701,-0.762634,314285.714286,147567619.047619,78792234.432234,76.104813,1,2,1,2,2,45.000000
2025-11-11 13:12:56.062,,,,,,,,,,,,,,,,,,,,,,,,,,,,,,,,,,,,,,,,,,/muse/elements/blink
2025-11-11 13:12:56.075,-0.1258219299818436,-0.2954121646542693,0,0.2966271264038358,0.2977013956873267,0.1068248288600229,0,0.329022864696052,0.1533109258497423,0.2737939688262709,0,0.2939169011265814,0.863466939903817,1.30785692036687,0,0.9790575120747789,0.8693865340405154,1.251881366396904,0,0.9499473227573858,828.4249084249085,772.8205128205128,712.7838827838829,823.1868131868132,703.919413919414,-0.300049,-0.036011,0.949890,-0.942078,-1.196289,0.216827,313479.853480,147480586.080586,78786593.406593,76.104813,1,2,1,2,2,45.000000
2025-11-11 13:12:57.155,-0.1258219299818436,-0.2954121646542693,0,0.2966271264038358,0.2977013956873267,0.1068248288600229,0,0.329022864696052,0.1533109258497423,0.2737939688262709,0,0.2939169011265814,0.863466939903817,1.30785692036687,0,0.9790575120747789,0.8693865340405154,1.251881366396904,0,0.9499473227573858,866.7032967032967,740.1831501831502,674.1025641025641,861.0622710622711,778.4615384615385,-0.294983,-0.036682,0.955017,-0.628052,-2.549591,-1.704712,315091.575092,147528131.868132,78864761.904762,77.101128,1,2,1,2,2,45.000000
2025-11-11 13:12:57.158,,,,,,,,,,,,,,,,,,,,,,,,,,,,,,,,,,,,,,,,,,/muse/elements/blink
2025-11-11 13:12:58.140,-0.1258219299818436,-0.2954121646542693,0,0.2966271264038358,0.2977013956873267,0.1068248288600229,0,0.329022864696052,0.1533109258497423,0.2737939688262709,0,0.2939169011265814,0.863466939903817,1.30785692036687,0,0.9790575120747789,0.8693865340405154,1.251881366396904,0,0.9499473227573858,806.6666666666667,775.6410256410256,715.6043956043957,809.8901098901099,692.2344322344322,-0.303345,-0.039246,0.952759,-0.336456,-2.235565,0.710297,315091.575092,147534578.754579,78830109.890110,76.820900,1,2,1,2,2,45.000000
2025-11-11 13:12:58.265,,,,,,,,,,,,,,,,,,,,,,,,,,,,,,,,,,,,,,,,,,/muse/elements/blink
2025-11-11 13:12:59.114,-0.1258219299818436,-0.2954121646542693,0,0.2966271264038358,0.2977013956873267,0.1068248288600229,0,0.329022864696052,0.1533109258497423,0.2737939688262709,0,0.2939169011265814,0.863466939903817,1.30785692036687,0,0.9790575120747789,0.8693865340405154,1.251881366396904,0,0.9499473227573858,798.2051282051282,732.9304029304029,669.2673992673992,802.6373626373627,782.893772893773,-0.305847,-0.039978,0.954468,-0.740204,-2.018738,-0.291595,316703.296703,147387912.087912,78794652.014652,76.493683,1,2,1,2,2,45.000000
2025-11-11 13:12:59.957,,,,,,,,,,,,,,,,,,,,,,,,,,,,,,,,,,,,,,,,,,/muse/elements/blink
2025-11-11 13:13:00.091,-0.1258219299818436,-0.4235504939071102,0,0.2966271264038358,0.2977013956873267,-0.05497156182743063,0,0.329022864696052,0.1533109258497423,0.09430669335331499,0,0.2939169011265814,0.863466939903817,1.375700969500744,0,0.9790575120747789,0.8693865340405154,1.431338517752147,0,0.9499473227573858,805.8608058608058,778.8644688644689,809.4871794871796,798.6080586080586,632.6007326007326,-0.312805,-0.032898,0.948364,-0.710297,-1.727142,-0.299072,315897.435897,147470109.890110,78754358.974359,76.493683,1,2,1,2,2,45.000000
2025-11-11 13:13:00.824,,,,,,,,,,,,,,,,,,,,,,,,,,,,,,,,,,,,,,,,,,/muse/elements/blink
2025-11-11 13:13:00.951,,,,,,,,,,,,,,,,,,,,,,,,,,,,,,,,,,,,,,,,,,/muse/elements/jaw_clench
2025-11-11 13:13:01.085,-0.1258219299818436,-0.2630330662759037,0,0.2966271264038358,0.2977013956873267,0.06761571876540666,0,0.329022864696052,0.1533109258497423,0.4815451597258407,0,0.2939169011265814,0.863466939903817,1.467703375998624,0,0.9790575120747789,0.8693865340405154,1.399121305717981,0,0.9499473227573858,827.6190476190476,812.3076923076924,698.2783882783883,795.3846153846154,809.8901098901099,-0.307068,-0.035339,0.950012,-0.381317,-2.684174,-0.164490,315091.575092,147481391.941392,78760000.000000,76.223518,1,2,1,2,2,45.000000
2025-11-11 13:13:01.824,,,,,,,,,,,,,,,,,,,,,,,,,,,,,,,,,,,,,,,,,,/muse/elements/blink
2025-11-11 13:13:02.076,-0.1258219299818436,-0.1232702934395479,0,0.2966271264038358,0.2977013956873267,0.1402030219309943,0,0.329022864696052,0.1533109258497423,0.4785545391057995,0,0.2939169011265814,0.863466939903817,1.520167497439401,0,0.9790575120747789,0.8693865340405154,1.382520115795418,0,0.9499473227573858,811.0989010989011,781.6849816849817,805.0549450549451,802.2344322344322,659.1941391941392,-0.305237,-0.034729,0.949036,-0.538330,-2.751465,1.039276,315091.575092,147397582.417582,78729377.289377,75.731102,1,2,1,2,2,45.000000
2025-11-11 13:13:03.150,-0.1258219299818436,-0.1232702934395479,0,0.2966271264038358,0.2977013956873267,0.1402030219309943,0,0.329022864696052,0.1533109258497423,0.4785545391057995,0,0.2939169011265814,0.863466939903817,1.520167497439401,0,0.9790575120747789,0.8693865340405154,1.382520115795418,0,0.9499473227573858,794.981684981685,790.952380952381,881.2087912087912,782.893772893773,511.7216117216117,-0.313782,-0.032959,0.947083,-0.560760,-2.347717,0.822449,313479.853480,147126813.186813,78651208.791209,76.621422,1,2,1,2,2,45.000000
2025-11-11 13:13:03.511,,,,,,,,,,,,,,,,,,,,,,,,,,,,,,,,,,,,,,,,,,/muse/elements/blink
2025-11-11 13:13:04.115,-0.1258219299818436,0.524740723645121,0,0.1516657447044837,0.2977013956873267,0.445396771949184,0,0.451070373556993,0.1533109258497423,0.7579268194397355,0,0.6173402957092148,0.863466939903817,1.525191392675094,0,1.045204411957958,0.8693865340405154,1.165494399165051,0,0.7389996258555986,810.6959706959707,800.2197802197802,771.6117216117216,800.6227106227107,661.2087912087912,-0.312683,-0.031311,0.948364,-0.553284,-1.697235,0.149536,315091.575092,147164688.644689,78660073.260073,75.247765,1,1,1,2,1,45.000000
2025-11-11 13:13:04.725,,,,,,,,,,,,,,,,,,,,,,,,,,,,,,,,,,,,,,,,,,/muse/elements/blink
2025-11-11 13:13:05.097,-0.1258219299818436,0.4396424290356233,0,0.1516657447044837,0.2977013956873267,0.1346489359424109,0,0.451070373556993,0.1533109258497423,0.9097277975922539,0,0.6173402957092148,0.863466939903817,1.234621070047509,0,1.045204411957958,0.8693865340405154,1.198385144948018,0,0.7389996258555986,805.8608058608058,810.2930402930403,754.6886446886447,805.4578754578755,723.6630036630037,-0.309448,-0.037415,0.943848,-0.747681,-2.751465,0.097198,314285.714286,147206593.406593,78660879.120879,75.412483,1,1,1,2,1,45.000000
2025-11-11 13:13:05.469,,,,,,,,,,,,,,,,,,,,,,,,,,,,,,,,,,,,,,,,,,/muse/elements/blink
2025-11-11 13:13:06.069,-0.1258219299818436,0.4396424290356233,0,0.1516657447044837,0.2977013956873267,0.1346489359424109,0,0.451070373556993,0.1533109258497423,0.9097277975922539,0,0.6173402957092148,0.863466939903817,1.234621070047509,0,1.045204411957958,0.8693865340405154,1.198385144948018,0,0.7389996258555986,803.8461538461539,797.8021978021978,853.4065934065934,779.6703296703297,725.2747252747253,-0.298889,-0.031189,0.949585,0.732727,-3.850555,-0.433655,314285.714286,146997875.457875,78666520.146520,75.353394,1,2,1,2,2,45.000000
2025-11-11 13:13:07.151,-0.1258219299818436,0.4396424290356233,0,0.6425126445428201,0.2977013956873267,0.1346489359424109,0,0.1717075461012218,0.1533109258497423,0.9097277975922539,0,0.710060016661484,0.863466939903817,1.234621070047509,0,1.000216185580668,0.8693865340405154,1.198385144948018,0,0.8369587794467028,853.4065934065934,773.6263736263736,917.0695970695971,854.6153846153846,743.4065934065934,-0.298767,-0.020142,0.942993,-0.725250,-1.450500,5.241241,313479.853480,146832673.992674,78598827.838828,75.988625,1,1,1,2,1,45.000000
2025-11-11 13:13:07.271,,,,,,,,,,,,,,,,,,,,,,,,,,,,,,,,,,,,,,,,,,/muse/elements/blink
2025-11-11 13:13:07.782,,,,,,,,,,,,,,,,,,,,,,,,,,,,,,,,,,,,,,,,,,/muse/elements/blink
2025-11-11 13:13:08.158,-0.1258219299818436,0.4396424290356233,0,0.6425126445428201,0.2977013956873267,0.1346489359424109,0,0.1717075461012218,0.1533109258497423,0.9097277975922539,0,0.710060016661484,0.863466939903817,1.234621070047509,0,1.000216185580668,0.8693865340405154,1.198385144948018,0,0.8369587794467028,811.0989010989011,805.8608058608058,1084.285714285714,794.981684981685,706.7399267399268,-0.314209,-0.005615,0.952515,-1.330872,-3.618774,-0.927124,313479.853480,146617509.157509,78618168.498168,77.046654,1,1,4,2,1,45.000000
2025-11-11 13:13:09.026,,,,,,,,,,,,,,,,,,,,,,,,,,,,,,,,,,,,,,,,,,/muse/elements/jaw_clench
2025-11-11 13:13:09.154,-0.1258219299818436,0.4396424290356233,0,0.6425126445428201,0.2977013956873267,0.1346489359424109,0,0.1717075461012218,0.1533109258497423,0.9097277975922539,0,0.710060016661484,0.863466939903817,1.234621070047509,0,1.000216185580668,0.8693865340405154,1.198385144948018,0,0.8369587794467028,805.0549450549451,829.2307692307693,1069.377289377289,821.5750915750916,598.3516483516484,-0.317200,-0.015259,0.947571,-0.530853,-2.011261,0.822449,313479.853480,146713406.593407,78607692.307692,77.277405,1,1,1,2,1,45.000000
2025-11-11 13:13:10.000,,,,,,,,,,,,,,,,,,,,,,,,,,,,,,,,,,,,,,,,,,/muse/elements/blink
2025-11-11 13:13:10.130,,,,,,,,,,,,,,,,,,,,,,,,,,,,,,,,,,,,,,,,,,/muse/elements/jaw_clench
2025-11-11 13:13:10.132,-0.1258219299818436,-0.5403898555264516,0,0.4502745357979062,0.2977013956873267,-0.1668868753945029,0,0.1667757910356087,0.1533109258497423,0.7082433838014561,0,0.6687854775877445,0.863466939903817,1.385962178022932,0,0.9538758410559769,0.8693865340405154,1.274062406358813,0,0.8038161029783114,794.1758241758242,821.5750915750916,938.4249084249085,810.6959706959707,784.1025641025641,-0.306458,-0.015503,0.950378,-0.710297,-3.185120,-1.024323,315897.435897,146750476.190476,78610109.890110,76.424767,1,1,1,2,1,45.000000
2025-11-11 13:13:11.127,-0.1258219299818436,-0.3771150712781288,0,0.4062705367292177,0.2977013956873267,-0.0221088135043829,0,0.2093013880213568,0.1533109258497423,0.5297587675037988,0,0.6289762003143923,0.863466939903817,1.547283638724916,0,0.9560095359717219,0.8693865340405154,1.343670715825003,0,0.7388545006333315,841.7216117216118,786.1172161172161,779.6703296703297,818.3516483516484,666.8498168498169,-0.309265,-0.009766,0.949097,-0.904694,-1.824341,-0.201874,313479.853480,146884249.084249,78667326.007326,76.229912,1,1,1,2,1,45.000000
2025-11-11 13:13:11.249,,,,,,,,,,,,,,,,,,,,,,,,,,,,,,,,,,,,,,,,,,/muse/elements/blink
2025-11-11 13:13:12.096,,,,,,,,,,,,,,,,,,,,,,,,,,,,,,,,,,,,,,,,,,/muse/elements/jaw_clench
2025-11-11 13:13:12.100,-0.1258219299818436,-0.5299264591935028,0,0.4062705367292177,0.2977013956873267,-0.364836674639405,0,0.2093013880213568,0.1533109258497423,0.7306542280157052,0,0.6289762003143923,0.863466939903817,1.693341248188605,0,0.9560095359717219,0.8693865340405154,1.462843655251818,0,0.7388545006333315,786.5201465201466,837.2893772893773,896.5201465201466,780.0732600732601,716.8131868131868,-0.306885,-0.014404,0.956543,-0.852356,-2.115936,-0.209351,314285.714286,146966446.886447,78646373.626374,75.875839,1,1,1,2,1,45.000000
2025-11-11 13:13:13.099,-0.1965944521837227,-0.6555670800130128,0,-0.05137374704579006,-0.0529620158539529,-0.4440787122926633,0,0.4905073746924906,0.3886190808077095,0.9702775983165967,0,0.6056047989814498,0.8962671073238305,1.470125908501115,0,1.020510502715535,0.7163169457976462,1.373166175480643,0,0.969348828532223,712.7838827838829,821.978021978022,757.9120879120879,712.3809523809524,720.4395604395604,-0.307861,-0.008728,0.952209,-0.874786,-2.773895,0.149536,313479.853480,146966446.886447,78636703.296703,75.203949,1,1,1,2,1,45.000000
2025-11-11 13:13:13.346,,,,,,,,,,,,,,,,,,,,,,,,,,,,,,,,,,,,,,,,,,/muse/elements/blink
2025-11-11 13:13:13.346,,,,,,,,,,,,,,,,,,,,,,,,,,,,,,,,,,,,,,,,,,/muse/elements/jaw_clench
2025-11-11 13:13:14.101,-0.2505167347637233,-0.5747464799638701,0,-0.08816760744166553,-0.2468036413518468,-0.3455387172016672,0,0.4284144481232092,0.2748391113912954,0.8505856321270794,0,0.6041758800949825,0.9295692733743445,1.491682793188406,0,0.9950053497245019,0.7549426066707247,1.335570230525217,0,0.9926059257854575,813.5164835164835,794.981684981685,809.0842490842491,808.2783882783883,575.7875457875458,-0.312134,-0.013123,0.951172,-0.254211,-2.100983,0.186920,314285.714286,146868937.728938,78610109.890110,75.203949,1,1,1,2,1,45.000000
2025-11-11 13:13:14.602,,,,,,,,,,,,,,,,,,,,,,,,,,,,,,,,,,,,,,,,,,/muse/elements/blink
2025-11-11 13:13:15.098,-0.2331534808366151,-0.1449739162531785,0,-0.08260958375644144,-0.3720476491934517,0.2411361593431262,0,0.3252084723747129,0.221932180254313,0.6168889307688354,0,0.6041758800949825,0.9460195267231453,1.732768516694075,0,0.994498971277506,0.7566874642661794,1.345469997815077,0,0.9863014915224626,807.0695970695971,765.9706959706959,861.4652014652015,801.8315018315019,653.5531135531136,-0.308105,-0.012573,0.948425,-0.986938,-1.951447,-0.314026,313479.853480,146894725.274725,78614139.194139,75.341980,1,1,1,2,1,45.000000
2025-11-11 13:13:15.943,,,,,,,,,,,,,,,,,,,,,,,,,,,,,,,,,,,,,,,,,,/muse/elements/blink
2025-11-11 13:13:16.066,-0.2331534808366151,-0.1417671787354824,0,-0.08260958375644144,-0.3720476491934517,0.2525367242274307,0,0.3252084723747129,0.221932180254313,0.6242409951193483,0,0.6041758800949825,0.9460195267231453,1.609074223295103,0,0.994498971277506,0.7566874642661794,1.299258020283458,0,0.9863014915224626,809.4871794871796,795.3846153846154,663.2234432234433,793.3699633699634,810.2930402930403,-0.293213,-0.019287,0.951111,-0.755157,-1.929016,0.112152,314285.714286,146755311.355311,78553699.633700,75.429214,1,2,1,2,2,45.000000
2025-11-11 13:13:16.951,,,,,,,,,,,,,,,,,,,,,,,,,,,,,,,,,,,,,,,,,,/muse/elements/jaw_clench
2025-11-11 13:13:17.085,,,,,,,,,,,,,,,,,,,,,,,,,,,,,,,,,,,,,,,,,,/muse/elements/blink
2025-11-11 13:13:17.085,,,,,,,,,,,,,,,,,,,,,,,,,,,,,,,,,,,,,,,,,,/muse/elements/jaw_clench
2025-11-11 13:13:17.092,-0.2331534808366151,-0.122974907198785,0,-0.08260958375644144,-0.3720476491934517,0.2568013977862341,0,0.3252084723747129,0.221932180254313,0.5412350452986534,0,0.6041758800949825,0.9460195267231453,1.324894421682472,0,0.994498971277506,0.7566874642661794,1.208420333282652,0,0.9863014915224626,837.2893772893773,822.7838827838829,880,811.9047619047619,579.8168498168499,-0.297180,-0.022278,0.952576,-0.635529,-2.213135,-0.590668,314285.714286,146688424.908425,78557728.937729,75.772980,1,2,1,2,2,45.000000
2025-11-11 13:13:17.961,,,,,,,,,,,,,,,,,,,,,,,,,,,,,,,,,,,,,,,,,,/muse/elements/blink
2025-11-11 13:13:18.086,-0.2331534808366151,-0.122974907198785,0,-0.08260958375644144,-0.3720476491934517,0.2568013977862341,0,0.3252084723747129,0.221932180254313,0.5412350452986534,0,0.6041758800949825,0.9460195267231453,1.324894421682472,0,0.994498971277506,0.7566874642661794,1.208420333282652,0,0.9863014915224626,835.6776556776557,805.0549450549451,864.6886446886447,830.8424908424909,649.5238095238095,-0.299377,-0.021484,0.954041,-0.852356,-2.235565,-0.553284,315091.575092,146474871.794872,78545641.025641,76.000458,1,2,1,2,2,45.000000
2025-11-11 13:13:19.148,-0.2331534808366151,-0.122974907198785,0,-0.08260958375644144,-0.3720476491934517,0.2568013977862341,0,0.3252084723747129,0.221932180254313,0.5412350452986534,0,0.6041758800949825,0.9460195267231453,1.324894421682472,0,0.994498971277506,0.7566874642661794,1.208420333282652,0,0.9863014915224626,811.9047619047619,780.0732600732601,779.6703296703297,803.4432234432235,728.0952380952381,-0.301208,-0.016235,0.956177,-0.381317,-2.616882,-0.014954,314285.714286,146528058.608059,78581098.901099,100.514206,1,2,1,2,2,45.000000
2025-11-11 13:13:19.395,,,,,,,,,,,,,,,,,,,,,,,,,,,,,,,,,,,,,,,,,,/muse/elements/blink
2025-11-11 13:13:20.123,-0.2331534808366151,-0.122974907198785,0,-0.08260958375644144,-0.3720476491934517,0.2568013977862341,0,0.3252084723747129,0.221932180254313,0.5412350452986534,0,0.6041758800949825,0.9460195267231453,1.324894421682472,0,0.994498971277506,0.7566874642661794,1.208420333282652,0,0.9863014915224626,810.2930402930403,832.0512820512821,698.6813186813187,805.4578754578755,768.7912087912088,-0.294983,-0.017090,0.953430,-0.216827,-2.078552,-0.717773,315091.575092,146684395.604396,78619780.219780,96.642921,1,2,1,2,2,45.000000
2025-11-11 13:13:20.858,,,,,,,,,,,,,,,,,,,,,,,,,,,,,,,,,,,,,,,,,,/muse/elements/blink
2025-11-11 13:13:21.107,,,,,,,,,,,,,,,,,,,,,,,,,,,,,,,,,,,,,,,,,,/muse/elements/jaw_clench
2025-11-11 13:13:21.113,-0.2331534808366151,-0.122974907198785,0,-0.08260958375644144,-0.3720476491934517,0.2568013977862341,0,0.3252084723747129,0.221932180254313,0.5412350452986534,0,0.6041758800949825,0.9460195267231453,1.324894421682472,0,0.994498971277506,0.7566874642661794,1.208420333282652,0,0.9863014915224626,800.6227106227107,811.5018315018315,858.6446886446887,801.4285714285714,769.5970695970697,-0.300598,-0.017578,0.954407,-0.500946,-2.377625,-0.306549,315091.575092,146503076.923077,78605274.725275,87.876869,1,2,1,2,2,45.000000
2025-11-11 13:13:22.106,-0.2331534808366151,-0.4683992321568338,0,-0.08260958375644144,-0.3720476491934517,-0.0894014873026258,0,0.3252084723747129,0.221932180254313,0.3299553662352277,0,0.6041758800949825,0.9460195267231453,1.410883077509227,0,0.994498971277506,0.7566874642661794,1.235870555921262,0,0.9863014915224626,665.2380952380953,774.4322344322345,450.0732600732601,677.3260073260074,969.047619047619,-0.304016,-0.014221,0.957153,-0.261688,-2.056122,-0.755157,314285.714286,146569157.509158,78659267.399267,82.703667,1,2,1,2,2,45.000000
2025-11-11 13:13:22.354,,,,,,,,,,,,,,,,,,,,,,,,,,,,,,,,,,,,,,,,,,/muse/elements/blink
2025-11-11 13:13:23.107,-0.2331534808366151,-0.3664885926512092,0,-0.08260958375644144,-0.3720476491934517,-0.03608441072140643,0,0.3252084723747129,0.221932180254313,0.5886149001166648,0,0.6041758800949825,0.9460195267231453,1.438254655427248,0,0.994498971277506,0.7566874642661794,1.273137361288054,0,0.9863014915224626,807.4725274725275,802.6373626373627,754.6886446886447,812.3076923076924,672.893772893773,-0.298584,-0.020508,0.958618,-0.485992,-2.938385,0.044861,315091.575092,146694065.934066,78694725.274725,80.703285,1,2,1,2,2,45.000000
2025-11-11 13:13:23.349,,,,,,,,,,,,,,,,,,,,,,,,,,,,,,,,,,,,,,,,,,/muse/elements/blink
2025-11-11 13:13:24.107,-0.2331534808366151,-0.2848691565876479,0,-0.08260958375644144,-0.3720476491934517,-0.07129121083961215,0,0.3252084723747129,0.221932180254313,0.7025992569340226,0,0.6041758800949825,0.9460195267231453,1.36899375387873,0,0.994498971277506,0.7566874642661794,1.280748380579485,0,0.9863014915224626,792.5641025641025,773.2234432234433,915.4578754578755,790.1465201465202,661.2087912087912,-0.300659,-0.016357,0.951355,-0.104675,-1.241150,-1.300964,315091.575092,146481318.681319,78565787.545788,78.097084,1,2,1,2,2,45.000000
2025-11-11 13:13:24.472,,,,,,,,,,,,,,,,,,,,,,,,,,,,,,,,,,,,,,,,,,/muse/elements/blink
2025-11-11 13:13:24.591,,,,,,,,,,,,,,,,,,,,,,,,,,,,,,,,,,,,,,,,,,/muse/elements/jaw_clench
2025-11-11 13:13:25.081,-0.2331534808366151,-0.2134326559277397,0,-0.08260958375644144,-0.3720476491934517,-0.2946946712160013,0,0.3252084723747129,0.221932180254313,0.6389919542201562,0,0.6041758800949825,0.9460195267231453,1.494706197531445,0,0.994498971277506,0.7566874642661794,1.394460366487987,0,0.9863014915224626,806.2637362637363,782.893772893773,212.7472527472528,796.996336996337,767.5824175824176,-0.296936,-0.022278,0.946655,-0.306549,-1.001892,-1.001892,315897.435897,146446666.666667,78553699.633700,78.109070,1,2,1,2,2,45.000000
2025-11-11 13:13:25.930,,,,,,,,,,,,,,,,,,,,,,,,,,,,,,,,,,,,,,,,,,/muse/elements/jaw_clench
2025-11-11 13:13:26.159,-0.2331534808366151,-0.1954463873271972,0,-0.08260958375644144,-0.3720476491934517,-0.3903617271501263,0,0.3252084723747129,0.221932180254313,0.5286212052282497,0,0.6041758800949825,0.9460195267231453,1.560265474771209,0,0.994498971277506,0.7566874642661794,1.392465607986092,0,0.9863014915224626,851.3919413919414,819.1575091575091,918.2783882783883,853.4065934065934,732.9304029304029,-0.297424,-0.025452,0.958618,-1.076660,-3.013153,-0.358887,315897.435897,146568351.648352,78602051.282051,78.029312,1,2,1,2,2,45.000000
2025-11-11 13:13:26.163,,,,,,,,,,,,,,,,,,,,,,,,,,,,,,,,,,,,,,,,,,/muse/elements/blink
2025-11-11 13:13:27.133,-0.2331534808366151,-0.1954463873271972,0,-0.08260958375644144,-0.3720476491934517,-0.3903617271501263,0,0.3252084723747129,0.221932180254313,0.5286212052282497,0,0.6041758800949825,0.9460195267231453,1.560265474771209,0,0.994498971277506,0.7566874642661794,1.392465607986092,0,0.9863014915224626,839.7069597069598,791.7582417582418,929.1575091575091,826.007326007326,618.4981684981685,-0.289795,-0.015991,0.954163,0.358887,-1.831818,-0.209351,315091.575092,146439413.919414,78562564.102564,78.297775,1,2,1,2,2,45.000000
2025-11-11 13:13:27.251,,,,,,,,,,,,,,,,,,,,,,,,,,,,,,,,,,,,,,,,,,/muse/elements/blink
2025-11-11 13:13:27.850,,,,,,,,,,,,,,,,,,,,,,,,,,,,,,,,,,,,,,,,,,/muse/elements/blink
2025-11-11 13:13:28.086,-0.2331534808366151,0.01033183821560267,0,-0.08260958375644144,-0.3720476491934517,0.03267290725017884,0,0.3252084723747129,0.221932180254313,0.7578091859743455,0,0.6041758800949825,0.9460195267231453,1.417741527306732,0,0.994498971277506,0.7566874642661794,1.369616250227376,0,0.9863014915224626,810.6959706959707,785.3113553113553,651.941391941392,809.8901098901099,744.6153846153846,-0.300659,0.018860,0.957397,0.029907,-0.560760,-0.463562,314285.714286,146378974.358974,78578681.318681,80.259529,1,2,1,2,2,45.000000
2025-11-11 13:13:28.202,,,,,,,,,,,,,,,,,,,,,,,,,,,,,,,,,,,,,,,,,,/muse/elements/blink
2025-11-11 13:13:28.323,,,,,,,,,,,,,,,,,,,,,,,,,,,,,,,,,,,,,,,,,,/muse/elements/blink
2025-11-11 13:13:28.696,,,,,,,,,,,,,,,,,,,,,,,,,,,,,,,,,,,,,,,,,,/muse/elements/blink
2025-11-11 13:13:29.073,-0.2331534808366151,0.05715755154091338,0,-0.08260958375644144,-0.3720476491934517,0.06072607799472568,0,0.3252084723747129,0.221932180254313,0.741468135857657,0,0.6041758800949825,0.9460195267231453,1.422474687806272,0,0.994498971277506,0.7566874642661794,1.369653730334346,0,0.9863014915224626,799.4139194139194,799.4139194139194,800.2197802197802,789.7435897435897,585.0549450549451,-0.262085,0.037537,0.963379,-0.732727,-1.689758,3.514099,315091.575092,146420879.120879,78653626.373626,82.808029,1,2,1,2,2,45.000000
2025-11-11 13:13:30.158,-0.2331534808366151,-0.2776436038215156,0,-0.08260958375644144,-0.3720476491934517,-0.06811514549867413,0,0.3252084723747129,0.221932180254313,0.4456051846519837,0,0.6041758800949825,0.9460195267231453,1.567093006813561,0,0.994498971277506,0.7566874642661794,1.232573706105566,0,0.9863014915224626,801.025641025641,793.7728937728938,627.7655677655678,796.1904761904763,923.5164835164835,-0.258850,0.013916,0.966919,-0.508423,-2.100983,0.560760,315091.575092,146470842.490842,78655238.095238,81.944984,1,2,1,2,2,45.000000
2025-11-11 13:13:31.016,,,,,,,,,,,,,,,,,,,,,,,,,,,,,,,,,,,,,,,,,,/muse/elements/blink
2025-11-11 13:13:31.144,0.07431171927122425,-0.2858728404889244,0,-0.1362131054927416,0.2029628428157618,-0.01257262159500787,0,0.1425554728648026,0.430833622962843,0.7265681079462414,0,0.7164748663874205,1.028188130700016,1.433142147947211,0,1.141586523548776,0.5597477482651702,1.255953321920583,0,0.6424307137507329,817.5457875457876,828.8278388278388,707.5457875457876,813.1135531135532,857.4358974358975,-0.245789,0.005493,0.969116,-0.239258,-2.250519,-0.209351,315091.575092,146522417.582418,78639120.879121,80.213768,1,1,1,2,1,45.000000
2025-11-11 13:13:31.630,,,,,,,,,,,,,,,,,,,,,,,,,,,,,,,,,,,,,,,,,,/muse/elements/blink
2025-11-11 13:13:32.123,0.1016588007659389,0.1598029206341375,0,-0.0155218539464153,0.1352637177835583,0.3081168205924235,0,0.1544628649178888,0.3254596329562527,0.6986862191207251,0,0.6568075765976115,1.013002708452365,1.338460309211338,0,1.144515927431069,0.6471326386339521,1.343163002717699,0,0.5569989845705817,825.6043956043957,803.4432234432235,763.956043956044,811.0989010989011,584.2490842490843,-0.254944,-0.002258,0.965881,-0.919647,-1.719666,-1.046753,316703.296703,146516776.556777,78619780.219780,84.797401,1,1,1,2,1,45.000000
2025-11-11 13:13:32.761,,,,,,,,,,,,,,,,,,,,,,,,,,,,,,,,,,,,,,,,,,/muse/elements/blink
2025-11-11 13:13:33.123,0.1016588007659389,0.07335281785528856,0,-0.0155218539464153,0.1352637177835583,0.2897912792711729,0,0.1544628649178888,0.3254596329562527,0.5392417391265607,0,0.6568075765976115,1.013002708452365,1.566837683706008,0,1.144515927431069,0.6471326386339521,1.377786554038944,0,0.5569989845705817,820.3663003663004,757.5091575091575,521.3919413919414,824.3956043956044,1169.304029304029,-0.254761,-0.000061,0.967590,-0.613098,-1.487885,-0.358887,315897.435897,146554652.014652,78646373.626374,85.531471,1,1,1,2,1,45.000000
2025-11-11 13:13:34.077,0.1016588007659389,0.07335281785528856,0,-0.0155218539464153,0.1352637177835583,0.2897912792711729,0,0.1544628649178888,0.3254596329562527,0.5392417391265607,0,0.6568075765976115,1.013002708452365,1.566837683706008,0,1.144515927431069,0.6471326386339521,1.377786554038944,0,0.5569989845705817,784.1025641025641,786.9230769230769,733.7362637362637,803.4432234432235,720.8424908424909,-0.250671,-0.003174,0.965759,-1.061707,-2.848663,-0.530853,315897.435897,146591721.611722,78666520.146520,105.583183,1,2,1,2,2,45.000000
2025-11-11 13:13:35.155,0.6264919891274545,0.07335281785528856,0,0.4160847088164776,0.2674082967763537,0.2897912792711729,0,0.06085326504559593,0.8442594739775806,0.5392417391265607,0,0.8170671000971486,0.9821754250695959,1.566837683706008,0,1.142317381120269,0.7814617036589696,1.377786554038944,0,0.7767806721816616,799.8168498168499,811.9047619047619,823.5897435897436,788.5347985347986,623.3333333333334,-0.258545,0.002808,0.967041,-1.039276,-2.736511,0.523376,315897.435897,146594945.054945,78645567.765568,101.344788,1,1,1,2,1,45.000000
2025-11-11 13:13:35.653,,,,,,,,,,,,,,,,,,,,,,,,,,,,,,,,,,,,,,,,,,/muse/elements/blink
2025-11-11 13:13:36.125,0.4495415448006527,0.1076565768686536,0,0.3719094557181957,0.209883740524719,0.2696858236065388,0,0.249475652148725,0.6833514174121735,0.6725651020051043,0,0.8677630253555978,0.8699504200424826,1.511883091517676,0,1.016651758170585,0.7808008258907428,1.472053521422245,0,0.6326001066646422,813.1135531135532,787.7289377289378,823.1868131868132,809.4871794871796,696.6666666666667,-0.257935,-0.002991,0.965271,-0.523376,-2.011261,0.179443,315091.575092,146515164.835165,78587545.787546,90.581123,1,1,1,2,1,45.000000
2025-11-11 13:13:36.738,,,,,,,,,,,,,,,,,,,,,,,,,,,,,,,,,,,,,,,,,,/muse/elements/blink
2025-11-11 13:13:37.087,0.4495415448006527,0.1122418627279963,0,0.2475161675111969,0.209883740524719,0.1670952629578725,0,0.284140401197934,0.6833514174121735,0.6725651020051043,0,0.8594978777235471,0.8699504200424826,1.508154332383636,0,0.9681581381469674,0.7808008258907428,1.366874807179262,0,0.57973748206054,804.6520146520147,820.3663003663004,736.959706959707,803.040293040293,748.6446886446887,-0.263794,-0.003723,0.964905,-0.710297,-2.265472,-0.388794,316703.296703,146514358.974359,78580293.040293,85.156052,1,1,1,2,1,45.000000
2025-11-11 13:13:37.555,,,,,,,,,,,,,,,,,,,,,,,,,,,,,,,,,,,,,,,,,,/muse/elements/jaw_clench
2025-11-11 13:13:37.925,,,,,,,,,,,,,,,,,,,,,,,,,,,,,,,,,,,,,,,,,,/muse/elements/blink
2025-11-11 13:13:38.153,0.4495415448006527,0.161255087651412,0,0.2475161675111969,0.209883740524719,0.1770649750717087,0,0.284140401197934,0.6833514174121735,0.6587190926135578,0,0.8594978777235471,0.8699504200424826,1.498663728755315,0,0.9681581381469674,0.7808008258907428,1.33693214484344,0,0.57973748206054,837.6923076923077,786.1172161172161,823.1868131868132,844.5421245421246,776.8498168498169,-0.256470,-0.003845,0.963745,-0.650482,-2.332764,-0.246735,318315.018315,146538534.798535,78610915.750916,84.823341,1,2,1,2,2,45.000000
2025-11-11 13:13:39.126,0.4495415448006527,-0.2769659241476709,0,0.2475161675111969,0.209883740524719,0.2215531079407932,0,0.284140401197934,0.6833514174121735,0.3238272580761358,0,0.8594978777235471,0.8699504200424826,1.300332131316545,0,0.9681581381469674,0.7808008258907428,1.089247945910919,0,0.57973748206054,815.5311355311355,799.0109890109891,795.7875457875458,820.3663003663004,752.6739926739926,-0.261536,0.001160,0.964539,-0.575714,-2.295380,0.785065,316703.296703,146596556.776557,78635897.435897,84.823341,1,2,1,2,2,45.000000
2025-11-11 13:13:40.076,,,,,,,,,,,,,,,,,,,,,,,,,,,,,,,,,,,,,,,,,,/muse/elements/blink
2025-11-11 13:13:40.077,0.05907297594627012,-0.05319161428842303,0,0.122060273551085,0.1386265982841613,0.2184229269842777,0,0.06696998453626572,0.3996273247015089,0.6975283294735014,0,0.3377074676714168,0.9288371616577917,1.349121350266845,0,0.9300774870127713,0.5932923713550166,1.204763581761085,0,0.9225835030551559,872.3443223443223,771.2087912087912,765.9706959706959,861.4652014652015,689.4139194139194,-0.258606,-0.001526,0.962891,-0.635529,-1.936493,-0.680389,316703.296703,146557875.457875,78651208.791209,80.956779,1,1,1,2,1,45.000000
2025-11-11 13:13:41.071,0.1290295508670535,-0.3251431359276415,0,0.1716978843287431,0.1981146555365813,0.05665474279790988,0,0.1670663875762157,0.3922942464714413,0.7873075076147239,0,0.2664886015403676,0.9664618887792882,1.43060933670207,0,0.9453946468283808,0.6638748950045256,1.219219377397283,0,0.9168439207428355,790.5494505494506,802.6373626373627,776.4468864468864,790.5494505494506,736.5567765567765,-0.260864,-0.003540,0.966125,-0.433655,-1.151428,-0.500946,315897.435897,146441831.501832,78683443.223443,79.439209,1,1,1,2,1,45.000000
2025-11-11 13:13:41.192,,,,,,,,,,,,,,,,,,,,,,,,,,,,,,,,,,,,,,,,,,/muse/elements/blink
2025-11-11 13:13:42.146,0.1290295508670535,-0.3666474763936491,0,0.1716978843287431,0.1981146555365813,-0.1957522731284818,0,0.1670663875762157,0.3922942464714413,0.6501042419733396,0,0.2664886015403676,0.9664618887792882,1.403490185740872,0,0.9453946468283808,0.6638748950045256,1.109846497061843,0,0.9168439207428355,785.3113553113553,784.9084249084249,765.5677655677656,786.5201465201466,824.3956043956044,-0.265381,-0.005554,0.960510,-0.560760,-2.078552,0.171967,317509.157509,146403150.183150,78625421.245421,78.899483,1,1,1,2,1,45.000000
2025-11-11 13:13:42.259,,,,,,,,,,,,,,,,,,,,,,,,,,,,,,,,,,,,,,,,,,/muse/elements/jaw_clench
2025-11-11 13:13:43.113,0.2098234666089261,-0.5568743010613577,0,0.026511029697328,0.1063415494998433,-0.2938291954816326,0,0.1651444696320694,0.3320786529614378,0.6183241952009911,0,0.4609462622033269,0.9574690150145265,1.432799214875737,0,1.001211765159941,0.7977057959538094,0.9776416394898135,0,0.8219808008810819,808.2783882783883,809.0842490842491,763.956043956044,793.3699633699634,735.3479853479854,-0.264282,-0.006287,0.966003,-0.792542,-1.794434,-0.814972,315897.435897,146407179.487179,78646373.626374,77.126511,1,1,1,2,1,45.000000
2025-11-11 13:13:44.065,0.0572205428674383,-0.6332488403848188,0,0.02068207699764561,0.03582968855527718,-0.3723945024890408,0,0.1730661851221708,0.8066712530652836,0.5947796705004683,0,0.6960219373987393,0.9465272307629452,1.472314357893376,0,1.057839898409447,0.6584129884061946,1.164406388661016,0,0.7043251186745294,800.6227106227107,815.1282051282052,627.7655677655678,784.9084249084249,873.5531135531136,-0.265381,-0.006165,0.966003,-0.725250,-1.921539,0.343933,316703.296703,146366080.586081,78630256.410256,77.126511,1,1,1,2,1,45.000000
2025-11-11 13:13:44.430,,,,,,,,,,,,,,,,,,,,,,,,,,,,,,,,,,,,,,,,,,/muse/elements/blink
2025-11-11 13:13:45.149,-0.2893795946807078,-0.6129730895769365,0,-0.01256720012950369,0.1048488323448769,-0.7399728123919539,0,0.288909422452487,0.772035235587853,0.509615820261194,0,0.6096190560956428,0.8682919707797294,1.598214301516189,0,0.985818093818964,0.4444271058731752,1.322196913237321,0,0.5476903316381777,799.4139194139194,817.5457875457876,791.7582417582418,790.1465201465202,652.3443223443223,-0.272278,-0.010620,0.964355,-0.740204,-2.504730,-0.687866,315091.575092,146348351.648352,78603663.003663,77.126511,1,1,1,2,1,45.000000
2025-11-11 13:13:46.132,-0.2490055181619164,-0.4938288062721319,0,-0.2163316991933424,-0.00216185578682415,-0.1239448650193104,0,0.05252928188078222,0.6576876012324433,0.5403737859166533,0,0.835740929584013,1.149653286273808,1.296018201584828,0,1.068306386429096,0.6380388813637812,1.229031749068634,0,0.7049156633676881,825.6043956043957,764.7619047619048,752.6739926739926,805.0549450549451,783.6996336996338,-0.265320,-0.005249,0.959229,-0.882263,-2.228088,-0.314026,315091.575092,146381391.941392,78622197.802198,76.028610,1,1,1,2,1,45.000000
2025-11-11 13:13:47.099,-0.07796871397780267,-0.3480381484012867,0,-0.1235862254227272,0.1759317992020352,-0.023686729106695,0,0.02386846734587435,0.9003607213238106,0.9074169923892585,0,0.8572194884348538,1.06262468183421,1.376480371856148,0,1.097094701216689,0.6656599106736039,1.400125774629766,0,0.8090223214271981,839.7069597069598,774.8351648351648,1018.205128205128,845.7509157509157,601.978021978022,-0.259460,-0.004333,0.965576,-1.188812,-1.181335,5.203857,315897.435897,146307252.747253,78627032.967033,74.855621,1,1,1,2,1,45.000000
2025-11-11 13:13:47.220,,,,,,,,,,,,,,,,,,,,,,,,,,,,,,,,,,,,,,,,,,/muse/elements/blink
2025-11-11 13:13:48.087,0.09318410558181449,-0.2386971974910376,0,-0.0129033978701262,0.2895726766190561,0.05354091299082578,0,-0.07006028778834056,0.8660417525111636,0.9071468879751805,0,0.6695121482068598,0.9163163055090123,1.318620185675978,0,1.065673761945403,0.7213697725490965,1.508851041418412,0,0.9438006786690295,801.025641025641,799.8168498168499,886.0439560439561,787.3260073260074,699.4871794871796,-0.305115,0.027283,0.951477,-0.635529,-3.394470,-0.942078,316703.296703,146009890.109890,78793846.153846,75.130859,1,1,1,2,1,45.000000
2025-11-11 13:13:48.696,,,,,,,,,,,,,,,,,,,,,,,,,,,,,,,,,,,,,,,,,,/muse/elements/blink
2025-11-11 13:13:49.074,0.09318410558181449,0.2350088462742131,0,-0.0129033978701262,0.2895726766190561,0.05350626314624314,0,-0.07006028778834056,0.8660417525111636,0.9258763073999662,0,0.6695121482068598,0.9163163055090123,1.240115950248587,0,1.065673761945403,0.7213697725490965,1.183629668094077,0,0.9438006786690295,773.6263736263736,815.1282051282052,658.3882783882784,765.1648351648352,884.0293040293041,-0.280457,0.008850,0.959229,-1.936493,-2.601929,-1.854248,315091.575092,146204908.424908,78918754.578755,75.217743,1,1,1,2,1,45.000000
2025-11-11 13:13:50.152,0.09318410558181449,0.3261503495299233,0,-0.0129033978701262,0.2895726766190561,0.2581810443717062,0,-0.07006028778834056,0.8660417525111636,0.9422685324243727,0,0.6695121482068598,0.9163163055090123,1.343288031901885,0,1.065673761945403,0.7213697725490965,1.237669504459683,0,0.9438006786690295,836.0805860805862,807.0695970695971,849.7802197802198,825.6043956043957,729.7069597069598,-0.289978,0.005371,0.957458,0.343933,-1.555176,0.157013,314285.714286,146214578.754579,78891355.311355,79.904732,1,2,1,2,2,45.000000
2025-11-11 13:13:50.156,,,,,,,,,,,,,,,,,,,,,,,,,,,,,,,,,,,,,,,,,,/muse/elements/blink
2025-11-11 13:13:51.148,0.09318410558181449,0.0108524247245852,0,-0.0129033978701262,0.2895726766190561,0.1150460669317901,0,-0.07006028778834056,0.8660417525111636,0.9436735593656909,0,0.6695121482068598,0.9163163055090123,1.422374168516454,0,1.065673761945403,0.7213697725490965,1.321055904301714,0,0.9438006786690295,752.2710622710623,817.1428571428571,759.5238095238095,744.2124542124542,582.2344322344322,-0.284119,-0.008545,0.957642,-0.837402,-2.153320,-0.942078,315091.575092,146295164.835165,78935677.655678,93.463928,1,2,1,2,2,45.000000
2025-11-11 13:13:51.378,,,,,,,,,,,,,,,,,,,,,,,,,,,,,,,,,,,,,,,,,,/muse/elements/blink
2025-11-11 13:13:52.132,0.09318410558181449,-0.07517336532967689,0,-0.0129033978701262,0.2895726766190561,-0.05989885262905865,0,-0.07006028778834056,0.8660417525111636,0.7941644602876682,0,0.6695121482068598,0.9163163055090123,1.360365816686107,0,1.065673761945403,0.7213697725490965,1.362051904508805,0,0.9438006786690295,797.3992673992674,802.2344322344322,684.5787545787546,796.5934065934066,840.9157509157509,-0.282593,-0.006409,0.959290,-1.076660,-1.764526,-0.157013,315091.575092,146111428.571429,78855091.575092,89.713928,1,2,1,2,2,45.000000
2025-11-11 13:13:53.124,-0.9557065469261208,-0.4755670509678445,0,-0.00791064474767042,-0.5964830989345888,-0.2793486463910532,0,-0.438745163725778,0.08459500712555752,0.6469377328269261,0,0.5931495312769188,0.7247287196457599,1.312326951037002,0,0.669183730757582,0.4754336513510896,1.050880860455502,0,0.6215386813495605,868.7179487179487,830.8424908424909,825.6043956043957,865.0915750915751,651.1355311355312,-0.279053,-0.016235,0.964783,-0.740204,-2.011261,-0.157013,315897.435897,146163003.663004,78874432.234432,82.640518,1,1,1,2,1,45.000000
2025-11-11 13:13:53.248,,,,,,,,,,,,,,,,,,,,,,,,,,,,,,,,,,,,,,,,,,/muse/elements/blink
2025-11-11 13:13:54.119,-0.9557065469261208,-0.121262735936267,0,-0.00791064474767042,-0.5964830989345888,-0.3165075893723734,0,-0.438745163725778,0.08459500712555752,0.7211173980008433,0,0.5931495312769188,0.7247287196457599,1.230957465941259,0,0.669183730757582,0.4754336513510896,1.083183353047842,0,0.6215386813495605,796.5934065934066,724.8717948717949,869.5238095238095,811.0989010989011,743.8095238095239,-0.271667,-0.018005,0.965088,-0.770111,-2.549591,0.007477,315091.575092,146157362.637363,78880879.120879,79.121277,1,1,1,2,1,45.000000
2025-11-11 13:13:54.243,,,,,,,,,,,,,,,,,,,,,,,,,,,,,,,,,,,,,,,,,,/muse/elements/blink
2025-11-11 13:13:55.095,-0.9557065469261208,0.1372352210078926,0,-0.00791064474767042,-0.5964830989345888,-0.06927203067309981,0,-0.438745163725778,0.08459500712555752,0.5021095408122603,0,0.5931495312769188,0.7247287196457599,1.111891409082841,0,0.669183730757582,0.4754336513510896,0.8489215275831726,0,0.6215386813495605,813.5164835164835,801.8315018315019,771.6117216117216,811.0989010989011,741.3919413919414,-0.262573,-0.018738,0.961426,-0.680389,-2.542114,-0.089722,315091.575092,146195238.095238,78874432.234432,77.148209,1,1,1,2,1,45.000000
2025-11-11 13:13:56.099,-0.2869431363533868,-0.47953995829584,0,-0.2130220090037281,-0.1603942844823725,-0.3692017702549828,0,0.03413814465041845,0.3517320809602362,0.4290999570257584,0,0.7178924362676739,0.7907539497619154,1.354892753806489,0,0.9639293523989598,0.7723229215129696,1.332381217975972,0,0.7420744511807558,806.6666666666667,786.5201465201466,882.8205128205128,794.981684981685,561.6849816849817,-0.284668,-0.017151,0.963318,-0.747681,-2.033691,0.463562,315091.575092,146146080.586081,78874432.234432,76.165787,1,1,1,2,1,45.000000
2025-11-11 13:13:57.104,-0.2566477505307224,-0.2653015120939194,0,-0.1564482854151534,0.2172721330890154,-0.3439673079626126,0,-0.05071432257368429,0.439901171969163,0.5702251655840852,0,0.7635041193003342,0.7370441696398559,1.305956713791892,0,0.8678675924482336,0.664123994720787,1.393027911394069,0,0.7797146570529317,796.996336996337,811.0989010989011,805.4578754578755,786.1172161172161,710.3663003663004,-0.283325,-0.019348,0.959900,-0.583191,-1.704712,0.142059,316703.296703,146051794.871795,78855091.575092,76.165787,1,1,1,2,1,45.000000
2025-11-11 13:13:58.102,,,,,,,,,,,,,,,,,,,,,,,,,,,,,,,,,,,,,,,,,,/muse/elements/blink
2025-11-11 13:13:58.104,0.1656861084097955,-0.1223192229955673,0,-0.06233471356948903,0.07045494712117654,-0.2661825004367188,0,-0.08769008050942606,0.2935714957969411,0.3527019801612705,0,0.6029324839282999,0.9113800117200436,1.279125856716544,0,0.8884386193686539,0.5387538146414068,1.519798157416908,0,0.7421895905292648,831.6483516483516,804.6520146520147,708.7545787545788,815.934065934066,835.6776556776557,-0.280273,-0.025024,0.960388,-1.084137,-2.033691,-0.418701,315091.575092,146078388.278388,78805934.065934,76.153725,1,1,1,2,1,45.000000
2025-11-11 13:13:59.075,0.4716591157375177,-0.2474275809948924,0,0.1064116755300606,-0.1746841234384744,-0.3220893628949618,0,0.04622137600400689,0.1658044478102376,0.1310882093640069,0,0.4196924585970776,0.9618183423549708,1.317571474637833,0,0.8598283127687514,0.5988537338992216,1.596113204948966,0,0.7809406947125876,794.981684981685,818.3516483516484,916.2637362637363,799.0109890109891,687.8021978021978,-0.273499,-0.031799,0.965149,-1.031799,-2.564545,-1.226196,316703.296703,146150109.890110,78836556.776557,75.656654,1,1,1,2,1,45.000000
2025-11-11 13:14:00.158,0.0007409748994890195,-0.5230780868442693,0,-0.4089101051263364,-0.3179497273987991,-0.0900801490137496,0,-0.2509989810954611,0.4031060100896233,0.1070013376046579,0,0.5297445244188427,0.7956121768373682,1.402234025808409,0,0.9459147133799674,0.6267435430064986,1.307421977179962,0,0.7871515315927099,813.5164835164835,806.6666666666667,800.2197802197802,802.2344322344322,814.3223443223443,-0.267212,-0.039551,0.959778,-0.657959,-2.257996,0.448608,317509.157509,146169450.549451,78823663.003663,75.131409,1,1,1,2,1,45.000000
2025-11-11 13:14:01.156,-0.05478882815231017,-0.1694188862307102,0,0.02097697918488249,-0.06081955752477734,-0.3748220680956241,0,-0.0100323491349845,0.4907191347081273,-0.3596747080981007,0,0.6417870275269242,0.8811062218387991,1.336834170108739,0,0.8771836052595011,0.5052186960754032,1.258765800163156,0,0.5853616195434198,815.934065934066,809.4871794871796,556.0439560439561,811.9047619047619,1092.747252747253,-0.275208,-0.042419,0.957214,-0.568237,-2.160797,-0.194397,316703.296703,146087252.747253,78801904.761905,74.508247,1,1,1,2,1,45.000000
2025-11-11 13:14:02.158,-0.2397008511148535,-0.3652397604005778,0,-0.0585436516639838,0.05604580153942645,-0.3731374679002014,0,0.04894871717275488,0.386210058307491,0.3738841722939386,0,0.5214497366965435,0.9400116990377098,1.293482444849398,0,0.9411004170636345,0.4532162719643219,1.376889516673449,0,0.5756227991091994,827.2161172161173,785.3113553113553,497.6190476190476,818.7545787545788,1139.89010989011,-0.280090,-0.041748,0.963318,-0.620575,-2.235565,0.246735,316703.296703,146101758.241758,78786593.406593,75.896545,1,1,1,1,1,45.000000
2025-11-11 13:14:03.146,,,,,,,,,,,,,,,,,,,,,,,,,,,,,,,,,,,,,,,,,,/muse/elements/blink
2025-11-11 13:14:03.155,-0.1631928430459565,-0.2453465752126814,0,-0.107569057853245,0.1447186346942917,-0.3459293014156252,0,-0.1240702463272384,0.499690923964396,0.5396988356276514,0,0.6580052196433582,0.9328198362475839,1.358088942154318,0,0.9797168875786724,0.4277824465179432,1.341955017619532,0,0.6387081785013889,813.919413919414,783.6996336996338,953.3333333333334,799.8168498168499,624.1391941391942,-0.273193,-0.039978,0.959656,-0.994415,-1.652374,-0.411224,318315.018315,146135604.395604,78770476.190476,76.516098,1,1,1,2,1,45.000000
2025-11-11 13:14:04.156,-0.1549121921910042,-0.08649526231498944,0,-0.1239439686228547,-0.2033522138811739,-0.3749518972842385,0,-0.08975870098259023,0.356502377329574,0.3689788795393577,0,0.4969570275340959,1.089992474114098,1.3831855700803,0,1.148387402856955,0.532169529082017,1.223861213755153,0,0.7115665181437757,819.5604395604396,821.978021978022,350.5494505494506,812.3076923076924,1500.915750915751,-0.269592,-0.043518,0.959473,-0.381317,-2.886047,0.964508,317509.157509,146142051.282051,78772893.772894,75.188972,1,1,1,2,1,45.000000
2025-11-11 13:14:05.158,-0.5404615313606339,-0.5907589172098863,0,-0.5026551176778499,0.08080487394813775,-0.2922947122300608,0,0.2422169446827224,0.2206242225750123,-0.02435961650630407,0,0.5189459951164006,0.8573738811897373,1.150579920452466,0,0.8293752415605983,0.5952817400655835,1.095714188715265,0,0.5423193815048623,775.6410256410256,789.3406593406594,883.2234432234433,781.2820512820513,592.7106227106227,-0.275757,-0.052124,0.958252,-1.054230,-1.106567,-0.620575,317509.157509,146085641.025641,78764029.304029,74.867615,1,1,1,2,1,45.000000
2025-11-11 13:14:06.154,-0.2743945301033827,-0.3787533262304412,0,-0.2824809629179402,0.157623452869626,-0.2020597224739266,0,-0.08119547058365864,0.5620643509104024,0.3104901798005218,0,0.8896255919778776,0.8322749294065743,1.217167209281329,0,0.8581187678759563,0.8204570155441201,1.178365835435164,0,0.8089943027571733,805.8608058608058,828.8278388278388,929.5604395604396,809.0842490842491,630.1831501831502,-0.280090,-0.048340,0.961243,-0.613098,-2.071075,0.029907,316703.296703,146077582.417582,78760805.860806,74.867615,1,1,1,2,1,45.000000
2025-11-11 13:14:06.993,,,,,,,,,,,,,,,,,,,,,,,,,,,,,,,,,,,,,,,,,,/muse/elements/blink
2025-11-11 13:14:07.121,-0.1177752009143468,-0.2733517877276825,0,-0.1644426583630719,0.2225100031947733,-0.02710964610150843,0,0.01751057904904813,0.732060941991989,0.3104901798005218,0,0.8356852573447696,0.8542325814093644,1.359694349346805,0,0.8692388140874837,0.7367282532982635,1.208562048684014,0,0.8714348488885679,851.3919413919414,827.6190476190476,455.3113553113553,838.901098901099,1374.395604395604,-0.275757,-0.045715,0.959534,-0.000000,-2.482300,0.201874,315091.575092,146096923.076923,78744688.644689,74.952232,1,1,1,2,1,45.000000
2025-11-11 13:14:08.100,-0.1787351972164326,-0.2733517877276825,0,-0.210622752996908,0.08651174288056165,-0.02710964610150843,0,0.2309232749272379,0.6182432108976041,0.3104901798005218,0,0.275335027352174,0.9834030503826825,1.359694349346805,0,0.7923346755926607,0.6308279419705854,1.208562048684014,0,0.9176796368981396,812.3076923076924,796.5934065934066,809.8901098901099,811.0989010989011,728.901098901099,-0.275391,-0.047424,0.965393,-0.441132,-2.340240,-0.291595,314285.714286,146205714.285714,78793040.293040,74.450050,1,1,1,2,1,45.000000
2025-11-11 13:14:09.098,-0.07392132903841223,-0.2733517877276825,0,-0.3036690571276967,0.1146562849009465,-0.02710964610150843,0,0.2488722270370856,0.2971426897104598,0.3104901798005218,0,0.4660321912112235,0.9155908022382757,1.359694349346805,0,0.7831882988101366,0.7664233387890229,1.208562048684014,0,0.647359949528398,828.021978021978,803.4432234432235,667.2527472527473,831.6483516483516,833.6630036630037,-0.283447,-0.044983,0.959778,-0.471039,-1.921539,-0.643005,315091.575092,145947838.827839,78722930.402930,74.070030,1,1,1,2,1,45.000000
2025-11-11 13:14:10.149,-0.1944028508930625,-0.2733517877276825,0,-0.3086269484402014,-0.03116142082576766,-0.02710964610150843,0,0.06194782661718921,0.5288782312056792,0.3104901798005218,0,0.4775833667634165,1.048803828559344,1.359694349346805,0,1.007137883992312,0.6937261239432088,1.208562048684014,0,0.6516153413764812,804.2490842490843,817.5457875457876,740.1831501831502,797.3992673992674,830.0366300366301,-0.288025,-0.040710,0.959595,-0.770111,-1.749573,-0.022430,316703.296703,145896263.736264,78690695.970696,74.070030,1,1,1,2,1,45.000000
2025-11-11 13:14:11.139,-0.03932864114058969,-0.5331252684991284,0,-0.183299769408861,-0.2703610053368347,-0.1432371700947211,0,0.06621858888170344,0.3074156125256452,0.3113252359126481,0,0.48069914106173,0.9408617706512994,1.506764471499876,0,0.9594689603582859,0.6935897313183645,1.434611637329623,0,0.696188854244599,799.8168498168499,747.8388278388279,805.8608058608058,812.3076923076924,620.9157509157509,-0.277405,-0.044434,0.960876,-0.119629,-2.265472,-0.104675,315091.575092,145898681.318681,78705201.465201,74.460716,1,1,1,2,1,45.000000
2025-11-11 13:14:11.383,,,,,,,,,,,,,,,,,,,,,,,,,,,,,,,,,,,,,,,,,,/muse/elements/blink
2025-11-11 13:14:11.511,,,,,,,,,,,,,,,,,,,,,,,,,,,,,,,,,,,,,,,,,,/muse/elements/jaw_clench
2025-11-11 13:14:11.758,,,,,,,,,,,,,,,,,,,,,,,,,,,,,,,,,,,,,,,,,,/muse/elements/jaw_clench
2025-11-11 13:14:12.147,-0.3158957657132652,-0.2192440772163572,0,-0.5939952446178813,-0.06091946868755789,0.1451537791041972,0,0.09941293223772796,0.2104983820658313,0.5184619191913071,0,0.3639766105896252,0.8724783168074133,1.467830325901078,0,0.9866782452426904,0.9209083820914812,1.400639593017662,0,0.9223380275040823,823.5897435897436,801.4285714285714,872.3443223443223,819.96336996337,858.2417582417582,-0.285461,-0.046326,0.964417,0.149536,-1.906586,0.388794,315897.435897,145884981.684982,78670549.450549,74.465332,1,1,1,2,1,45.000000
2025-11-11 13:14:12.893,,,,,,,,,,,,,,,,,,,,,,,,,,,,,,,,,,,,,,,,,,/muse/elements/jaw_clench
2025-11-11 13:14:13.156,-0.2848946280520644,-0.02774628186132498,0,0.203980629450769,0.1067026673542844,0.105166796160867,0,0.140377612918724,0.4546457720073873,0.5409190558534641,0,0.5488669362698915,0.8632274777433776,1.248250042345743,0,0.8068258451321575,0.4900740257890221,1.326126471740372,0,0.649619694303173,819.96336996337,772.8205128205128,500.0366300366301,830.8424908424909,1349.81684981685,-0.279663,-0.043823,0.953918,-0.837402,-1.667328,-0.957031,315897.435897,145774578.754579,78646373.626374,74.337547,1,1,1,2,1,45.000000
2025-11-11 13:14:14.157,0.1221927665862863,-0.3535602375095862,0,0.5570578238500541,0.1205354603491814,-0.4435987801198158,0,0.09406631142480761,0.8436280225312648,0.5766499180414015,0,0.5518250556077391,0.895987952585396,1.69252900269639,0,0.8679361907680748,0.631768212070564,1.311569286958184,0,0.7220987866896444,806.2637362637363,818.7545787545788,783.2967032967033,788.1318681318681,813.919413919414,-0.280823,-0.045898,0.959839,-0.515900,-2.968292,0.366364,316703.296703,145637582.417582,78647985.347985,74.247612,1,1,1,2,1,45.000000
2025-11-11 13:14:14.780,,,,,,,,,,,,,,,,,,,,,,,,,,,,,,,,,,,,,,,,,,/muse/elements/blink
2025-11-11 13:14:15.151,0.02860039828497603,-0.3535602375095862,0,0.06471330772338733,-0.0002472879006634743,-0.4435987801198158,0,-0.2243890423391337,0.8389123907205922,0.5766499180414015,0,0.641360199858641,0.8805017225195413,1.69252900269639,0,0.973463190821355,0.7122346008756903,1.311569286958184,0,0.7937683090132359,783.6996336996338,788.1318681318681,919.4871794871796,784.5054945054945,605.6043956043957,-0.275818,-0.039429,0.958496,-0.545807,-3.237457,-0.358887,315897.435897,145745567.765568,78695531.135531,72.780838,1,1,1,2,1,45.000000
2025-11-11 13:14:16.146,0.2323039035341594,-0.1579074269498637,0,-0.1076929487377232,0.0543913233342119,0.2361418416422665,0,-0.1301487443147062,0.7239757169416894,0.8508602764970483,0,0.641360199858641,1.001334507163962,1.33280004064838,0,1.025615944734416,0.7062813164220246,1.201418005224349,0,0.7724983286811837,821.5750915750916,769.5970695970697,527.8388278388279,824.7985347985348,1067.765567765568,-0.268311,-0.043152,0.968018,0.209351,-3.858032,-0.456085,316703.296703,145878534.798535,78710842.490842,73.395393,1,1,1,2,1,45.000000
2025-11-11 13:14:16.517,,,,,,,,,,,,,,,,,,,,,,,,,,,,,,,,,,,,,,,,,,/muse/elements/blink
2025-11-11 13:14:17.134,0.2148447528490192,-0.07503164916646667,0,-0.08512581102691159,0.04166115430617132,0.265980259477507,0,-0.08078077067039209,0.8114104284008463,0.7843645390203456,0,0.5525061297969288,0.9943906491144214,1.317876118842495,0,1.033224450906321,0.6961661631684971,1.276817447610277,0,0.67153894641967,813.5164835164835,820.7692307692308,859.4505494505495,814.7252747252747,608.4249084249085,-0.258667,-0.030579,0.969177,-1.099091,-1.368256,-1.009369,315091.575092,145670622.710623,78702783.882784,73.561134,1,1,1,2,1,45.000000
2025-11-11 13:14:18.126,0.1386291824065007,0.01335924930436826,0,0.2828839026899602,-0.04978266764967691,0.2612439067808925,0,0.6963839039177775,0.699428628175068,0.5947076507679554,0,0.8635310767280685,0.9800509163327549,1.274373438578043,0,0.880544367191105,0.6950069785972037,1.309479391078832,0,0.4840900296518496,786.1172161172161,770.8058608058608,830.8424908424909,804.2490842490843,869.1208791208792,-0.254211,-0.030701,0.965942,-0.680389,-1.801910,-0.396271,317509.157509,145723003.663004,78712454.212454,75.453758,1,1,1,2,1,45.000000
2025-11-11 13:14:18.458,,,,,,,,,,,,,,,,,,,,,,,,,,,,,,,,,,,,,,,,,,/muse/elements/blink
2025-11-11 13:14:19.067,0.1386291824065007,0.03351919963983731,0,0.4658931913391719,-0.04978266764967691,-0.2911916685535574,0,0.761142464920875,0.699428628175068,0.2439500300272622,0,0.9372875143787799,0.9800509163327549,1.306070095688077,0,0.8857964396443038,0.6950069785972037,1.433648888480842,0,0.5002747458664841,732.1245421245421,780.8791208791209,496.4102564102564,732.9304029304029,983.5531135531136,-0.258240,-0.030151,0.967468,-0.687866,-1.846771,0.127106,316703.296703,145815677.655678,78777728.937729,75.466629,1,1,1,2,1,45.000000
2025-11-11 13:14:19.165,,,,,,,,,,,,,,,,,,,,,,,,,,,,,,,,,,,,,,,,,,/muse/elements/blink
2025-11-11 13:14:20.061,0.1386291824065007,0.03351919963983731,0,0.6059297578138835,-0.04978266764967691,-0.2911916685535574,0,0.8479661028909675,0.699428628175068,0.2439500300272622,0,0.9037125498237411,0.9800509163327549,1.306070095688077,0,0.8709646976047821,0.6950069785972037,1.433648888480842,0,0.5172031372299988,799.0109890109891,816.3369963369963,900.1465201465202,795.7875457875458,732.1245421245421,-0.253052,-0.039124,0.966187,-0.844879,-2.213135,-0.613098,315897.435897,145897875.457875,78782564.102564,74.764359,1,1,1,2,1,45.000000
2025-11-11 13:14:20.713,,,,,,,,,,,,,,,,,,,,,,,,,,,,,,,,,,,,,,,,,,/muse/elements/blink
2025-11-11 13:14:21.064,0.1386291824065007,0.01691532757739006,0,0.6059297578138835,-0.04978266764967691,-0.3966734923134044,0,0.8479661028909675,0.699428628175068,0.1913659032594546,0,0.9037125498237411,0.9800509163327549,1.298146858640887,0,0.8709646976047821,0.6950069785972037,1.424627662747568,0,0.5172031372299988,808.6813186813187,763.956043956044,792.967032967033,804.2490842490843,832.0512820512821,-0.254211,-0.038086,0.963623,-1.031799,-1.682281,0.844879,317509.157509,145870476.190476,78755970.695971,75.376038,1,2,1,2,2,45.000000
2025-11-11 13:14:22.061,0.1386291824065007,-1.118278913326917,0,0.6059297578138835,-0.04978266764967691,-0.6907056743584663,0,0.8479661028909675,0.699428628175068,0.3440253437769793,0,0.9037125498237411,0.9800509163327549,1.349707342956635,0,0.8709646976047821,0.6950069785972037,1.151659843699433,0,0.5172031372299988,821.1721611721612,828.4249084249085,806.2637362637363,820.7692307692308,786.5201465201466,-0.250366,-0.036621,0.963867,-0.433655,-1.891632,-0.351410,315897.435897,145743956.043956,78744688.644689,73.541275,1,2,1,2,2,45.000000
2025-11-11 13:14:22.988,,,,,,,,,,,,,,,,,,,,,,,,,,,,,,,,,,,,,,,,,,/muse/elements/blink
2025-11-11 13:14:23.062,-0.3473431534758141,-0.9546699286325526,0,0.1994976011922331,0.4139753040965845,-0.7166958997497941,0,-0.01501815595426253,0.8303630369898559,0.3376517145031858,0,0.5240765479224797,0.9894959719773866,1.364143701883761,0,0.9573509165383851,0.6992121820490905,1.168102160068521,0,0.7250795753325989,837.6923076923077,812.3076923076924,882.8205128205128,841.3186813186813,763.1501831501831,-0.241211,-0.045044,0.972717,-0.149536,-2.056122,0.927124,315897.435897,145652087.912088,78689084.249084,72.401619,1,1,1,2,1,45.000000
2025-11-11 13:14:24.032,,,,,,,,,,,,,,,,,,,,,,,,,,,,,,,,,,,,,,,,,,/muse/elements/blink
2025-11-11 13:14:24.064,-0.1842103974107303,-0.8610979796255482,0,0.4904700609230004,0.5604194361789346,-0.8629305260192043,0,-0.06068190911546967,0.7882786666039714,0.2868394636924093,0,-0.08410150956925784,1.043581272638159,1.40816681909309,0,1.044663340711074,0.7039346714292702,1.180450234481275,0,0.6380418892507439,824.7985347985348,793.3699633699634,857.032967032967,836.4835164835165,722.0512820512821,-0.244263,-0.045898,0.969238,-0.643005,-3.102875,-0.142059,315897.435897,145647252.747253,78711648.351648,73.290359,1,1,1,2,1,45.000000
2025-11-11 13:14:24.562,,,,,,,,,,,,,,,,,,,,,,,,,,,,,,,,,,,,,,,,,,/muse/elements/blink
2025-11-11 13:14:24.562,,,,,,,,,,,,,,,,,,,,,,,,,,,,,,,,,,,,,,,,,,/muse/elements/jaw_clench
2025-11-11 13:14:25.061,-0.1842103974107303,-0.8610979796255482,0,0.4904700609230004,0.5604194361789346,-0.8629305260192043,0,-0.06068190911546967,0.7882786666039714,0.2868394636924093,0,-0.08410150956925784,1.043581272638159,1.40816681909309,0,1.044663340711074,0.7039346714292702,1.180450234481275,0,0.6380418892507439,819.5604395604396,764.3589743589744,504.0659340659341,807.4725274725275,738.5714285714286,-0.232605,-0.047424,0.975769,-0.463562,-1.772003,0.553284,314285.714286,145587619.047619,78718901.098901,73.940269,1,1,1,2,1,45.000000
2025-11-11 13:14:25.583,,,,,,,,,,,,,,,,,,,,,,,,,,,,,,,,,,,,,,,,,,/muse/elements/blink
2025-11-11 13:14:26.060,-0.1842103974107303,-0.8610979796255482,0,0.4904700609230004,0.5604194361789346,-0.8629305260192043,0,-0.06068190911546967,0.7882786666039714,0.2868394636924093,0,-0.08410150956925784,1.043581272638159,1.40816681909309,0,1.044663340711074,0.7039346714292702,1.180450234481275,0,0.6380418892507439,819.5604395604396,779.2673992673992,948.0952380952381,821.5750915750916,701.0989010989011,-0.244690,-0.045349,0.965698,-0.343933,-1.637421,-0.074768,315091.575092,145453040.293040,78681831.501832,75.654938,1,2,1,2,2,45.000000
2025-11-11 13:14:26.388,,,,,,,,,,,,,,,,,,,,,,,,,,,,,,,,,,,,,,,,,,/muse/elements/blink
2025-11-11 13:14:27.060,-0.1842103974107303,-0.8610979796255482,0,0.4904700609230004,0.5604194361789346,-0.8629305260192043,0,-0.06068190911546967,0.7882786666039714,0.2868394636924093,0,-0.08410150956925784,1.043581272638159,1.40816681909309,0,1.044663340711074,0.7039346714292702,1.180450234481275,0,0.6380418892507439,813.1135531135532,770.4029304029305,748.6446886446887,811.5018315018315,779.6703296703297,-0.244202,-0.045898,0.973816,-0.314026,-2.355194,0.411224,315091.575092,145644029.304029,78735018.315018,76.305138,1,2,1,2,2,45.000000
2025-11-11 13:14:27.410,,,,,,,,,,,,,,,,,,,,,,,,,,,,,,,,,,,,,,,,,,/muse/elements/blink
2025-11-11 13:14:28.061,-0.1842103974107303,-0.8610979796255482,0,0.4904700609230004,0.5604194361789346,-0.8629305260192043,0,-0.06068190911546967,0.7882786666039714,0.2868394636924093,0,-0.08410150956925784,1.043581272638159,1.40816681909309,0,1.044663340711074,0.7039346714292702,1.180450234481275,0,0.6380418892507439,801.4285714285714,831.6483516483516,795.7875457875458,792.5641025641025,694.2490842490843,-0.230713,-0.039734,0.968262,-0.882263,-2.317810,-0.672913,315897.435897,145646446.886447,78710842.490842,78.082596,1,2,1,2,2,45.000000
2025-11-11 13:14:28.310,,,,,,,,,,,,,,,,,,,,,,,,,,,,,,,,,,,,,,,,,,/muse/elements/blink
2025-11-11 13:14:29.067,-0.1842103974107303,-0.8610979796255482,0,0.4904700609230004,0.5604194361789346,-0.8629305260192043,0,-0.06068190911546967,0.7882786666039714,0.2868394636924093,0,-0.08410150956925784,1.043581272638159,1.40816681909309,0,1.044663340711074,0.7039346714292702,1.180450234481275,0,0.6380418892507439,699.0842490842491,803.4432234432235,723.2600732600732,704.7252747252747,819.1575091575091,-0.240601,-0.046265,0.970764,-0.628052,-2.362671,-0.373840,316703.296703,145776190.476190,78809963.369963,80.344772,1,2,1,2,2,45.000000
2025-11-11 13:14:29.246,,,,,,,,,,,,,,,,,,,,,,,,,,,,,,,,,,,,,,,,,,/muse/elements/blink
2025-11-11 13:14:29.933,,,,,,,,,,,,,,,,,,,,,,,,,,,,,,,,,,,,,,,,,,/muse/elements/blink
2025-11-11 13:14:30.070,-0.1842103974107303,0.4227756556065439,0,0.4904700609230004,0.5604194361789346,0.601734565530285,0,-0.06068190911546967,0.7882786666039714,0.6753628979665685,0,-0.08410150956925784,1.043581272638159,1.532406918702502,0,1.044663340711074,0.7039346714292702,1.429220102588735,0,0.6380418892507439,845.7509157509157,802.6373626373627,636.6300366300367,836.8864468864469,883.6263736263736,-0.234009,-0.051575,0.980835,-0.732727,-1.794434,-0.104675,316703.296703,145951868.131868,78842197.802198,80.944351,1,2,1,2,2,45.000000
2025-11-11 13:14:30.889,,,,,,,,,,,,,,,,,,,,,,,,,,,,,,,,,,,,,,,,,,/muse/elements/blink
2025-11-11 13:14:31.173,-0.1842103974107303,0.4227756556065439,0,0.4904700609230004,0.5604194361789346,0.601734565530285,0,-0.06068190911546967,0.7882786666039714,0.6753628979665685,0,-0.08410150956925784,1.043581272638159,1.532406918702502,0,1.044663340711074,0.7039346714292702,1.429220102588735,0,0.6380418892507439,819.1575091575091,793.7728937728938,748.6446886446887,819.96336996337,699.4871794871796,-0.228271,-0.049805,0.971619,-0.560760,-2.205658,-0.119629,319120.879121,145890622.710623,78826886.446886,80.944351,1,2,1,2,2,45.000000
2025-11-11 13:14:31.885,,,,,,,,,,,,,,,,,,,,,,,,,,,,,,,,,,,,,,,,,,/muse/elements/blink
2025-11-11 13:14:32.124,-0.1842103974107303,0.4227756556065439,0,0.4904700609230004,0.5604194361789346,0.601734565530285,0,-0.06068190911546967,0.7882786666039714,0.6753628979665685,0,-0.08410150956925784,1.043581272638159,1.532406918702502,0,1.044663340711074,0.7039346714292702,1.429220102588735,0,0.6380418892507439,823.5897435897436,818.3516483516484,871.1355311355312,804.6520146520147,625.3479853479854,-0.232483,-0.044067,0.969666,-0.321503,-1.480408,-0.418701,317509.157509,146031648.351648,78874432.234432,80.944351,1,2,1,2,2,45.000000
2025-11-11 13:14:33.097,-0.1842103974107303,-0.1736196487606553,0,0.4904700609230004,0.5604194361789346,-0.09693205226979229,0,-0.06068190911546967,0.7882786666039714,0.632737814617094,0,-0.08410150956925784,1.043581272638159,1.459797445508088,0,1.044663340711074,0.7039346714292702,1.067741393756775,0,0.6380418892507439,812.7106227106227,805.0549450549451,764.7619047619048,823.1868131868132,897.3260073260074,-0.224487,-0.047241,0.974609,-0.598145,-1.981354,-0.515900,315897.435897,145992161.172161,78855897.435897,82.085968,1,2,1,2,2,45.000000
2025-11-11 13:14:34.077,0.182094368183982,0.03894175334144383,0,0.2112033508825987,-0.1242149840098488,-0.05431008294974633,0,0.2385690471718937,0.4951585990256033,0.6951661077026274,0,0.6466894781885304,0.8994560812640485,1.476830458538685,0,1.010310093114322,0.5936620904905375,1.124469524961274,0,0.520317586709662,826.4102564102565,759.5238095238095,745.0183150183151,812.3076923076924,722.4542124542124,-0.247375,-0.050903,0.964478,-0.897217,-1.958923,0.142059,315897.435897,145974432.234432,78867985.347985,77.928215,1,1,1,2,1,45.000000
2025-11-11 13:14:34.693,,,,,,,,,,,,,,,,,,,,,,,,,,,,,,,,,,,,,,,,,,/muse/elements/blink
2025-11-11 13:14:35.071,0.4033711357093328,0.172370453848553,0,0.4587530550254321,-0.1626759026414842,-0.02701568099089298,0,-0.03391619346042423,0.3090121948592891,0.6530417837742244,0,0.7413329186125844,0.9499937392071127,1.50350677274569,0,0.9993223397157388,0.5878331160687972,1.169862799867127,0,0.6158528285423897,801.025641025641,790.952380952381,896.1172161172161,782.893772893773,811.9047619047619,-0.264893,-0.030640,0.964539,-0.710297,-3.147736,0.657959,318315.018315,145499780.219780,78746300.366300,77.928215,1,1,4,2,1,45.000000
2025-11-11 13:14:35.802,,,,,,,,,,,,,,,,,,,,,,,,,,,,,,,,,,,,,,,,,,/muse/elements/blink
2025-11-11 13:14:36.149,0.5236844002629623,0.172370453848553,0,0.5412745879654673,-0.1718979944958473,-0.02701568099089298,0,0.006269045209062187,0.2791915481576587,0.6530417837742244,0,0.7376105213581096,0.9336044747289637,1.50350677274569,0,0.8975164592595866,0.4163338128903686,1.169862799867127,0,0.5262172655663544,813.919413919414,802.6373626373627,768.3882783882784,818.3516483516484,764.3589743589744,-0.241150,-0.051514,0.974731,-0.747681,-2.601929,-0.710297,317509.157509,145544908.424908,78764029.304029,75.277153,1,1,1,2,1,45.000000
2025-11-11 13:14:36.649,,,,,,,,,,,,,,,,,,,,,,,,,,,,,,,,,,,,,,,,,,/muse/elements/blink
2025-11-11 13:14:37.152,0.5236844002629623,0.172370453848553,0,0.5412745879654673,-0.1718979944958473,-0.02701568099089298,0,0.006269045209062187,0.2791915481576587,0.6530417837742244,0,0.7376105213581096,0.9336044747289637,1.50350677274569,0,0.8975164592595866,0.4163338128903686,1.169862799867127,0,0.5262172655663544,696.6666666666667,825.2014652014652,772.4175824175825,709.1575091575091,876.7765567765568,-0.241577,-0.045898,0.976074,-0.149536,-2.370148,-0.912170,316703.296703,145440146.520147,78772893.772894,80.152023,1,2,1,2,2,45.000000
2025-11-11 13:14:37.279,,,,,,,,,,,,,,,,,,,,,,,,,,,,,,,,,,,,,,,,,,/muse/elements/blink
2025-11-11 13:14:38.132,0.5236844002629623,0.172370453848553,0,0.5412745879654673,-0.1718979944958473,-0.02701568099089298,0,0.006269045209062187,0.2791915481576587,0.6530417837742244,0,0.7376105213581096,0.9336044747289637,1.50350677274569,0,0.8975164592595866,0.4163338128903686,1.169862799867127,0,0.5262172655663544,751.4652014652015,823.5897435897436,897.3260073260074,753.0769230769231,588.6813186813187,-0.251343,-0.015320,0.970398,0.164490,-4.530945,1.854248,318315.018315,145542490.842491,78818827.838828,99.855911,1,2,1,2,2,45.000000
2025-11-11 13:14:38.495,,,,,,,,,,,,,,,,,,,,,,,,,,,,,,,,,,,,,,,,,,/muse/elements/blink
2025-11-11 13:14:39.117,,,,,,,,,,,,,,,,,,,,,,,,,,,,,,,,,,,,,,,,,,/muse/elements/blink
2025-11-11 13:14:39.119,0.5236844002629623,0.172370453848553,0,0.5412745879654673,-0.1718979944958473,-0.02701568099089298,0,0.006269045209062187,0.2791915481576587,0.6530417837742244,0,0.7376105213581096,0.9336044747289637,1.50350677274569,0,0.8975164592595866,0.4163338128903686,1.169862799867127,0,0.5262172655663544,856.2271062271062,802.6373626373627,792.1611721611722,863.0769230769231,828.8278388278388,-0.242310,-0.022583,0.965698,-1.076660,-2.295380,-0.157013,315897.435897,145473992.673993,78739853.479853,97.725533,1,2,1,2,2,45.000000
2025-11-11 13:14:40.083,,,,,,,,,,,,,,,,,,,,,,,,,,,,,,,,,,,,,,,,,,/muse/elements/blink
2025-11-11 13:14:40.084,0.5236844002629623,0.172370453848553,0,0.5412745879654673,-0.1718979944958473,-0.02701568099089298,0,0.006269045209062187,0.2791915481576587,0.6530417837742244,0,0.7376105213581096,0.9336044747289637,1.50350677274569,0,0.8975164592595866,0.4163338128903686,1.169862799867127,0,0.5262172655663544,830.0366300366301,830.0366300366301,733.7362637362637,819.5604395604396,822.3809523809524,-0.241821,-0.017212,0.966614,-0.710297,-2.235565,0.314026,316703.296703,145498168.498168,78723736.263736,88.011490,1,2,1,2,2,45.000000
2025-11-11 13:14:41.149,0.5236844002629623,0.172370453848553,0,0.5412745879654673,-0.1718979944958473,-0.02701568099089298,0,0.006269045209062187,0.2791915481576587,0.6530417837742244,0,0.7376105213581096,0.9336044747289637,1.50350677274569,0,0.8975164592595866,0.4163338128903686,1.169862799867127,0,0.5262172655663544,800.6227106227107,771.6117216117216,875.5677655677656,790.952380952381,686.1904761904763,-0.230347,-0.025208,0.966003,-0.037384,-3.080444,-0.194397,319120.879121,145686739.926740,78797069.597070,82.201225,1,2,1,2,2,45.000000
2025-11-11 13:14:41.503,,,,,,,,,,,,,,,,,,,,,,,,,,,,,,,,,,,,,,,,,,/muse/elements/blink
2025-11-11 13:14:42.091,0.5236844002629623,0.172370453848553,0,0.5412745879654673,-0.1718979944958473,-0.02701568099089298,0,0.006269045209062187,0.2791915481576587,0.6530417837742244,0,0.7376105213581096,0.9336044747289637,1.50350677274569,0,0.8975164592595866,0.4163338128903686,1.169862799867127,0,0.5262172655663544,804.6520146520147,841.3186813186813,833.2600732600733,798.2051282051282,597.5457875457876,-0.228455,-0.021851,0.977783,-0.246735,-2.467346,0.246735,317509.157509,145913186.813187,78837362.637363,82.201225,1,2,1,2,2,45.000000
2025-11-11 13:14:42.326,,,,,,,,,,,,,,,,,,,,,,,,,,,,,,,,,,,,,,,,,,/muse/elements/blink
2025-11-11 13:14:43.159,0.5236844002629623,0.172370453848553,0,0.5412745879654673,-0.1718979944958473,-0.02701568099089298,0,0.006269045209062187,0.2791915481576587,0.6530417837742244,0,0.7376105213581096,0.9336044747289637,1.50350677274569,0,0.8975164592595866,0.4163338128903686,1.169862799867127,0,0.5262172655663544,831.2454212454213,821.1721611721612,769.5970695970697,813.5164835164835,828.8278388278388,-0.230286,-0.025024,0.968262,-0.628052,-2.250519,0.059814,318315.018315,145869670.329670,78827692.307692,82.201225,1,2,1,2,2,45.000000
2025-11-11 13:14:43.901,,,,,,,,,,,,,,,,,,,,,,,,,,,,,,,,,,,,,,,,,,/muse/elements/blink
2025-11-11 13:14:44.026,,,,,,,,,,,,,,,,,,,,,,,,,,,,,,,,,,,,,,,,,,/muse/elements/jaw_clench
2025-11-11 13:14:44.158,0.5236844002629623,0.172370453848553,0,0.5412745879654673,-0.1718979944958473,-0.02701568099089298,0,0.006269045209062187,0.2791915481576587,0.6530417837742244,0,0.7376105213581096,0.9336044747289637,1.50350677274569,0,0.8975164592595866,0.4163338128903686,1.169862799867127,0,0.5262172655663544,822.3809523809524,790.5494505494506,827.2161172161173,823.5897435897436,739.7802197802198,-0.228577,-0.016846,0.972229,-0.882263,-0.986938,-1.435547,318315.018315,145977655.677656,78805934.065934,79.348831,1,2,1,2,2,45.000000
2025-11-11 13:14:45.023,,,,,,,,,,,,,,,,,,,,,,,,,,,,,,,,,,,,,,,,,,/muse/elements/blink
2025-11-11 13:14:45.153,0.5236844002629623,0.172370453848553,0,0.5412745879654673,-0.1718979944958473,-0.02701568099089298,0,0.006269045209062187,0.2791915481576587,0.6530417837742244,0,0.7376105213581096,0.9336044747289637,1.50350677274569,0,0.8975164592595866,0.4163338128903686,1.169862799867127,0,0.5262172655663544,816.7399267399268,817.948717948718,767.985347985348,815.1282051282052,718.8278388278388,-0.229370,-0.020630,0.972656,-0.396271,-2.280426,0.037384,317509.157509,145984102.564103,78783369.963370,78.984276,1,2,1,2,2,45.000000
2025-11-11 13:14:46.152,,,,,,,,,,,,,,,,,,,,,,,,,,,,,,,,,,,,,,,,,,/muse/elements/blink
2025-11-11 13:14:46.154,0.5236844002629623,0.172370453848553,0,0.5412745879654673,-0.1718979944958473,-0.02701568099089298,0,0.006269045209062187,0.2791915481576587,0.6530417837742244,0,0.7376105213581096,0.9336044747289637,1.50350677274569,0,0.8975164592595866,0.4163338128903686,1.169862799867127,0,0.5262172655663544,838.0952380952381,795.3846153846154,941.2454212454213,841.7216117216118,637.032967032967,-0.226196,-0.020752,0.968567,-0.336456,-1.831818,-0.403748,317509.157509,145982490.842491,78753553.113553,78.918961,1,2,1,2,2,45.000000
2025-11-11 13:14:47.156,0.5236844002629623,0.172370453848553,0,0.5412745879654673,-0.1718979944958473,-0.02701568099089298,0,0.006269045209062187,0.2791915481576587,0.6530417837742244,0,0.7376105213581096,0.9336044747289637,1.50350677274569,0,0.8975164592595866,0.4163338128903686,1.169862799867127,0,0.5262172655663544,811.0989010989011,796.1904761904763,782.0879120879121,800.6227106227107,826.007326007326,-0.234863,-0.020996,0.971985,-0.800018,-1.943970,-0.433655,316703.296703,145680293.040293,78672967.032967,78.918961,1,2,1,2,2,45.000000
2025-11-11 13:14:48.158,-0.2622913753500303,-0.588380010579049,0,-0.3487159175318412,0.1013085369249507,-0.291950712158186,0,-0.03685520154720055,0.6755835755298157,0.4875235105131221,0,0.548826645009195,1.01990429953458,1.247922328919582,0,1.028676168561547,0.5619894339405308,1.181909564484448,0,0.5283123875908374,789.3406593406594,822.7838827838829,790.5494505494506,790.952380952381,737.7655677655678,-0.225159,-0.020996,0.973450,-0.411224,-2.243042,0.254211,316703.296703,145445787.545788,78614139.194139,101.928780,1,1,1,2,1,45.000000
2025-11-11 13:14:48.655,,,,,,,,,,,,,,,,,,,,,,,,,,,,,,,,,,,,,,,,,,/muse/elements/blink
