TimeStamp,Delta_TP9,Delta_AF7,Delta_AF8,Delta_TP10,Theta_TP9,Theta_AF7,Theta_AF8,Theta_TP10,Alpha_TP9,Alpha_AF7,Alpha_AF8,Alpha_TP10,Beta_TP9,Beta_AF7,Beta_AF8,Beta_TP10,Gamma_TP9,Gamma_AF7,Gamma_AF8,Gamma_TP10,RAW_TP9,RAW_AF7,RAW_AF8,RAW_TP10,AUX_RIGHT,Accelerometer_X,Accelerometer_Y,Accelerometer_Z,Gyro_X,Gyro_Y,Gyro_Z,PPG_Ambient,PPG_IR,PPG_Red,Heart_Rate,HeadBandOn,HSI_TP9,HSI_AF7,HSI_AF8,HSI_TP10,Battery,Elements
2025-11-11 13:37:48.882,,,,,,,,,,,,,,,,,,,,,,,,,,,,,,,,,,,,,,,,,,/muse/event/connected Muse-135C
2025-11-11 13:37:48.939,,,,,,,,,,,,,,,,,,,,,,,,,,,,,,,,,,,,,,,,,,/muse/elements/blink
2025-11-11 13:37:49.286,,,,,,,,,,,,,,,,,,,,,,,,,,,,,,,,,,,,,,,,,,/muse/elements/blink
2025-11-11 13:37:49.478,,,,,,,,,,,,,,,,,,,,,,,,,,,,,,,,,,,,,,,,,,/muse/elements/blink
2025-11-11 13:37:49.668,,,,,,,,,,,,,,,,,,,,,,,,,,,,,,,,,,,,,,,,,,/muse/elements/blink
2025-11-11 13:37:49.883,0.4631760722970716,1.096048196618411,0.007001847877510187,0.5158232911301566,0.4656005480455126,0.815367245161326,0.2919274315121602,0.6936447428532839,0.973143463737247,0.8251762333527131,0.4612110211142161,0.5758587441179422,0.9906379347428524,0.9228602341491142,1.550664993123257,0.8575083624855218,0.9486930810749292,0.833149393848826,1.327135253140161,1.173930602241611,637.8388278388279,767.985347985348,796.5934065934066,605.2014652014652,651.1355311355312,0.400146,0.530334,0.875732,-34.774628,-15.230255,-220.939636,436776.556777,138976336.996337,82853772.893773,90.359909,1,2,1,1,2,30.000000
2025-11-11 13:37:49.903,,,,,,,,,,,,,,,,,,,,,,,,,,,,,,,,,,,,,,,,,,/muse/elements/blink
2025-11-11 13:37:49.988,,,,,,,,,,,,,,,,,,,,,,,,,,,,,,,,,,,,,,,,,,/muse/elements/jaw_clench
2025-11-11 13:37:50.074,,,,,,,,,,,,,,,,,,,,,,,,,,,,,,,,,,,,,,,,,,/muse/elements/blink
2025-11-11 13:37:50.502,,,,,,,,,,,,,,,,,,,,,,,,,,,,,,,,,,,,,,,,,,/muse/elements/blink
2025-11-11 13:37:50.693,,,,,,,,,,,,,,,,,,,,,,,,,,,,,,,,,,,,,,,,,,/muse/elements/blink
2025-11-11 13:37:50.693,,,,,,,,,,,,,,,,,,,,,,,,,,,,,,,,,,,,,,,,,,/muse/elements/jaw_clench
2025-11-11 13:37:50.884,,,,,,,,,,,,,,,,,,,,,,,,,,,,,,,,,,,,,,,,,,/muse/elements/jaw_clench
2025-11-11 13:37:50.884,0.4631760722970716,1.096048196618411,0.007001847877510187,0.5158232911301566,0.4656005480455126,0.815367245161326,0.2919274315121602,0.6936447428532839,0.973143463737247,0.8251762333527131,0.4612110211142161,0.5758587441179422,0.9906379347428524,0.9228602341491142,1.550664993123257,0.8575083624855218,0.9486930810749292,0.833149393848826,1.327135253140161,1.173930602241611,605.2014652014652,785.3113553113553,805.4578754578755,779.6703296703297,649.92673992674,0.303162,0.195557,0.924194,1.816864,0.829926,5.944061,336043.956044,139060146.520147,82625714.285714,90.359909,1,2,1,1,2,30.000000
2025-11-11 13:37:51.884,0.4631760722970716,1.096048196618411,0.007001847877510187,0.5158232911301566,0.4656005480455126,0.815367245161326,0.2919274315121602,0.6936447428532839,0.973143463737247,0.8251762333527131,0.4612110211142161,0.5758587441179422,0.9906379347428524,0.9228602341491142,1.550664993123257,0.8575083624855218,0.9486930810749292,0.833149393848826,1.327135253140161,1.173930602241611,703.919413919414,796.5934065934066,808.6813186813187,777.6556776556777,677.3260073260074,0.318665,0.205933,0.930115,-0.052338,-1.457977,2.026215,337655.677656,138959413.919414,82672454.212454,89.919189,1,2,1,1,2,30.000000
2025-11-11 13:37:52.184,,,,,,,,,,,,,,,,,,,,,,,,,,,,,,,,,,,,,,,,,,/muse/elements/blink
2025-11-11 13:37:52.419,,,,,,,,,,,,,,,,,,,,,,,,,,,,,,,,,,,,,,,,,,/muse/elements/blink
2025-11-11 13:37:52.419,,,,,,,,,,,,,,,,,,,,,,,,,,,,,,,,,,,,,,,,,,/muse/elements/jaw_clench
2025-11-11 13:37:52.610,,,,,,,,,,,,,,,,,,,,,,,,,,,,,,,,,,,,,,,,,,/muse/elements/jaw_clench
2025-11-11 13:37:52.884,0.4631760722970716,1.096048196618411,0.007001847877510187,0.5158232911301566,0.4656005480455126,0.815367245161326,0.2919274315121602,0.6936447428532839,0.973143463737247,0.8251762333527131,0.4612110211142161,0.5758587441179422,0.9906379347428524,0.9228602341491142,1.550664993123257,0.8575083624855218,0.9486930810749292,0.833149393848826,1.327135253140161,1.173930602241611,707.1428571428571,778.4615384615385,908.6080586080586,822.7838827838829,641.0622710622711,0.093933,0.227722,0.937866,0.314026,3.431854,-2.714081,390036.630037,138755531.135531,82206666.666667,86.219620,1,2,1,1,2,30.000000
2025-11-11 13:37:53.418,,,,,,,,,,,,,,,,,,,,,,,,,,,,,,,,,,,,,,,,,,/muse/elements/jaw_clench
2025-11-11 13:37:53.651,,,,,,,,,,,,,,,,,,,,,,,,,,,,,,,,,,,,,,,,,,/muse/elements/jaw_clench
2025-11-11 13:37:53.735,,,,,,,,,,,,,,,,,,,,,,,,,,,,,,,,,,,,,,,,,,/muse/elements/blink
2025-11-11 13:37:53.883,0.4631760722970716,1.096048196618411,0.007001847877510187,0.5158232911301566,0.4656005480455126,0.815367245161326,0.2919274315121602,0.6936447428532839,0.973143463737247,0.8251762333527131,0.4612110211142161,0.5758587441179422,0.9906379347428524,0.9228602341491142,1.550664993123257,0.8575083624855218,0.9486930810749292,0.833149393848826,1.327135253140161,1.173930602241611,684.1758241758242,877.5824175824176,842.5274725274726,940.4395604395605,814.3223443223443,0.094849,0.250000,0.950195,-2.579498,3.753357,3.110352,420659.340659,138846593.406593,82360586.080586,86.561119,1,2,1,1,2,30.000000
2025-11-11 13:37:54.031,,,,,,,,,,,,,,,,,,,,,,,,,,,,,,,,,,,,,,,,,,/muse/elements/blink
2025-11-11 13:37:54.264,,,,,,,,,,,,,,,,,,,,,,,,,,,,,,,,,,,,,,,,,,/muse/elements/blink
2025-11-11 13:37:54.892,0.4631760722970716,1.096048196618411,0.007001847877510187,0.5158232911301566,0.4656005480455126,0.815367245161326,0.2919274315121602,0.6936447428532839,0.973143463737247,0.8251762333527131,0.4612110211142161,0.5758587441179422,0.9906379347428524,0.9228602341491142,1.550664993123257,0.8575083624855218,0.9486930810749292,0.833149393848826,1.327135253140161,1.173930602241611,600.7692307692308,776.8498168498169,812.7106227106227,795.3846153846154,555.6410256410256,0.383850,0.039856,0.863403,6.078644,8.463745,9.577789,453699.633700,139363956.043956,82491941.391941,85.127045,1,2,1,1,2,30.000000
2025-11-11 13:37:55.052,,,,,,,,,,,,,,,,,,,,,,,,,,,,,,,,,,,,,,,,,,/muse/elements/blink
2025-11-11 13:37:55.859,,,,,,,,,,,,,,,,,,,,,,,,,,,,,,,,,,,,,,,,,,/muse/elements/jaw_clench
2025-11-11 13:37:55.883,0.4631760722970716,1.096048196618411,0.007001847877510187,0.5158232911301566,0.4656005480455126,0.815367245161326,0.2919274315121602,0.6936447428532839,0.973143463737247,0.8251762333527131,0.4612110211142161,0.5758587441179422,0.9906379347428524,0.9228602341491142,1.550664993123257,0.8575083624855218,0.9486930810749292,0.833149393848826,1.327135253140161,1.173930602241611,563.2967032967033,774.0293040293041,820.7692307692308,801.8315018315019,607.2161172161173,0.280518,0.048950,0.948853,-0.306549,-2.175751,2.415009,492380.952381,139475164.835165,82696630.036630,84.795807,1,2,1,1,2,30.000000
2025-11-11 13:37:56.692,,,,,,,,,,,,,,,,,,,,,,,,,,,,,,,,,,,,,,,,,,/muse/elements/blink
2025-11-11 13:37:56.883,0.4631760722970716,0.7121148028793288,0.007001847877510187,0.5158232911301566,0.4656005480455126,0.1474279844514584,0.2919274315121602,0.6936447428532839,0.973143463737247,0.2141487041945277,0.4612110211142161,0.5758587441179422,0.9906379347428524,0.4720995114335776,1.550664993123257,0.8575083624855218,0.9486930810749292,0.3467556535189358,1.327135253140161,1.173930602241611,1062.124542124542,781.6849816849817,826.007326007326,774.0293040293041,704.7252747252747,0.292419,0.049316,0.953552,-0.560760,-1.861725,-0.710297,507692.307692,139696776.556777,82873919.413919,84.306389,1,2,1,1,2,30.000000
2025-11-11 13:37:57.202,,,,,,,,,,,,,,,,,,,,,,,,,,,,,,,,,,,,,,,,,,/muse/elements/blink
2025-11-11 13:37:57.884,0.4631760722970716,0.3950982671199324,0.007001847877510187,0.5158232911301566,0.4656005480455126,0.2222807380668983,0.2919274315121602,0.6936447428532839,0.973143463737247,0.5203649366893988,0.4612110211142161,0.5758587441179422,0.9906379347428524,0.4589794113705411,1.550664993123257,0.8575083624855218,0.9486930810749292,0.4475161517347785,1.327135253140161,1.173930602241611,834.4688644688645,805.8608058608058,803.4432234432235,809.8901098901099,630.5860805860806,0.157959,0.079529,1.075439,-9.278717,38.176575,22.056580,455311.355311,139622637.362637,82761904.761905,85.750526,1,2,1,1,2,30.000000
2025-11-11 13:37:57.907,,,,,,,,,,,,,,,,,,,,,,,,,,,,,,,,,,,,,,,,,,/muse/elements/jaw_clench
2025-11-11 13:37:58.099,,,,,,,,,,,,,,,,,,,,,,,,,,,,,,,,,,,,,,,,,,/muse/elements/jaw_clench
2025-11-11 13:37:58.183,,,,,,,,,,,,,,,,,,,,,,,,,,,,,,,,,,,,,,,,,,/muse/elements/blink
2025-11-11 13:37:58.611,,,,,,,,,,,,,,,,,,,,,,,,,,,,,,,,,,,,,,,,,,/muse/elements/blink
2025-11-11 13:37:58.884,0.4631760722970716,0.7902020536776786,0.007001847877510187,0.5158232911301566,0.4656005480455126,0.9819718820242337,0.2919274315121602,0.6936447428532839,0.973143463737247,0.9446294182102619,0.4612110211142161,0.5758587441179422,0.9906379347428524,0.6957362119451853,1.550664993123257,0.8575083624855218,0.9486930810749292,0.6390067182790039,1.327135253140161,1.173930602241611,334.4322344322345,797.8021978021978,780.8791208791209,748.6446886446887,526.6300366300367,0.383362,0.067810,0.979004,-4.373932,-9.428253,-12.456360,410989.010989,139554139.194139,82788498.168498,85.750526,1,2,1,1,2,30.000000
2025-11-11 13:37:59.141,,,,,,,,,,,,,,,,,,,,,,,,,,,,,,,,,,,,,,,,,,/muse/elements/blink
2025-11-11 13:37:59.891,0.4631760722970716,0.542417081576818,1.28066854843258,0.5158232911301566,0.4656005480455126,0.511183073632531,0.7757626049630659,0.6936447428532839,0.973143463737247,0.3330074227645625,0.9331769372169737,0.5758587441179422,0.9906379347428524,0.7160879662880419,0.4260024258333545,0.8575083624855218,0.9486930810749292,0.6106041562879567,0.07085847247670896,1.173930602241611,706.7399267399268,760.7326007326008,902.5641025641025,765.9706959706959,1094.761904761905,-0.059448,0.280273,0.936890,-32.262421,89.886169,-40.800934,457728.937729,139979633.699634,83016556.776557,85.148682,1,4,1,1,2,30.000000
2025-11-11 13:37:59.925,,,,,,,,,,,,,,,,,,,,,,,,,,,,,,,,,,,,,,,,,,/muse/elements/blink
2025-11-11 13:38:00.029,,,,,,,,,,,,,,,,,,,,,,,,,,,,,,,,,,,,,,,,,,/muse/elements/jaw_clench
2025-11-11 13:38:00.348,,,,,,,,,,,,,,,,,,,,,,,,,,,,,,,,,,,,,,,,,,/muse/elements/blink
2025-11-11 13:38:00.433,,,,,,,,,,,,,,,,,,,,,,,,,,,,,,,,,,,,,,,,,,/muse/elements/jaw_clench
2025-11-11 13:38:00.732,,,,,,,,,,,,,,,,,,,,,,,,,,,,,,,,,,,,,,,,,,/muse/elements/blink
2025-11-11 13:38:00.883,0.4631760722970716,0.4557997330803556,1.301650005735964,0.5158232911301566,0.4656005480455126,0.3105625678235759,0.8553485816924427,0.6936447428532839,0.973143463737247,0.1147800477837527,0.9154412641643214,0.5758587441179422,0.9906379347428524,0.3901276889963036,0.3616596254911589,0.8575083624855218,0.9486930810749292,0.1437310094197477,0.1085668545496999,1.173930602241611,976.3003663003664,780.0732600732601,788.9377289377289,788.9377289377289,609.6336996336996,-0.306152,-0.203369,0.959534,-1.996307,-14.303131,-4.201965,898534.798535,139822490.842491,82587032.967033,82.239479,1,2,1,1,2,30.000000
2025-11-11 13:38:00.988,,,,,,,,,,,,,,,,,,,,,,,,,,,,,,,,,,,,,,,,,,/muse/elements/blink
2025-11-11 13:38:01.650,,,,,,,,,,,,,,,,,,,,,,,,,,,,,,,,,,,,,,,,,,/muse/elements/blink
2025-11-11 13:38:01.884,0.4631760722970716,0.4557997330803556,1.333629515526872,0.5158232911301566,0.4656005480455126,0.3105625678235759,0.8985872457675819,0.6936447428532839,0.973143463737247,0.1147800477837527,0.9121055060907393,0.5758587441179422,0.9906379347428524,0.3901276889963036,0.3338057316238771,0.8575083624855218,0.9486930810749292,0.1437310094197477,0.1464628169362164,1.173930602241611,985.5677655677656,814.7252747252747,814.3223443223443,803.040293040293,722.8571428571429,-0.253235,-0.220032,0.943604,-0.254211,-5.465546,-0.912170,906593.406593,139731428.571429,82678901.098901,80.245659,1,2,1,1,2,30.000000
2025-11-11 13:38:02.696,,,,,,,,,,,,,,,,,,,,,,,,,,,,,,,,,,,,,,,,,,/muse/elements/blink
2025-11-11 13:38:02.884,0.4631760722970716,0.4557997330803556,0.6555248801164332,0.5158232911301566,0.4656005480455126,0.3105625678235759,0.3603722768109695,0.6936447428532839,0.973143463737247,0.1147800477837527,0.2490013274977059,0.5758587441179422,0.9906379347428524,0.3901276889963036,0.6378387721184757,0.8575083624855218,0.9486930810749292,0.1437310094197477,0.6411582562337413,1.173930602241611,895.7142857142858,835.6776556776557,826.8131868131868,813.919413919414,1010.549450549451,-0.241333,-0.237488,0.940796,2.175751,-5.375824,-0.448608,959780.219780,139552527.472527,82504029.304029,80.573311,1,2,1,1,2,30.000000
2025-11-11 13:38:03.884,0.4631760722970716,0.7862657708840793,0.1279406454944445,0.5158232911301566,0.4656005480455126,0.8223932469185208,-0.1406697206593052,0.6936447428532839,0.973143463737247,1.247079298730423,0.2664748516749491,0.5758587441179422,0.9906379347428524,1.033976537638793,0.7313720165707058,0.8575083624855218,0.9486930810749292,0.9761316949188452,0.7729984949930444,1.173930602241611,664.4322344322344,800.6227106227107,800.2197802197802,770,630.1831501831502,-0.210815,-0.235168,0.948303,-0.426178,-1.891632,-1.764526,958168.498168,139348644.688645,82359780.219780,80.573311,1,2,1,1,2,30.000000
2025-11-11 13:38:04.884,0.4631760722970716,-0.1834190925356973,-0.01887583562806318,0.655773706307755,0.4656005480455126,0.05486813830501834,0.07188610403711991,0.905634500385843,0.973143463737247,0.5165834207761423,0.5977872066540498,1.319796640474118,0.9906379347428524,0.9743977007341682,0.7883499507347902,1.644649821836824,0.9486930810749292,1.137148531335991,0.7536914829373529,1.415648726542631,838.0952380952381,781.2820512820513,815.5311355311355,895.3113553113553,589.4871794871796,-0.196960,-0.231934,0.950378,-0.097198,-1.674805,-2.310333,974285.714286,138858681.318681,82068058.608059,81.088921,1,1,1,1,1,30.000000
2025-11-11 13:38:04.919,,,,,,,,,,,,,,,,,,,,,,,,,,,,,,,,,,,,,,,,,,/muse/elements/blink
2025-11-11 13:38:05.834,,,,,,,,,,,,,,,,,,,,,,,,,,,,,,,,,,,,,,,,,,/muse/elements/jaw_clench
2025-11-11 13:38:05.889,0.4631760722970716,-0.2992516085103507,0.5966591855405666,0.7758462333071159,0.4656005480455126,0.08281935036192263,0.7557319038915146,1.105316745582893,0.973143463737247,0.2129955969276079,0.9206312578719991,1.318678631154303,0.9906379347428524,0.9789523196964709,0.8859805608423459,1.616460128726233,0.9486930810749292,1.016006559472674,0.7075074525247949,1.481233208831989,746.6300366300367,863.0769230769231,859.047619047619,599.5604395604396,696.6666666666667,-0.053894,-0.204651,0.842651,60.876160,-10.086212,74.618530,918681.318681,138666080.586081,82011648.351648,82.921577,1,1,1,1,1,30.000000
2025-11-11 13:38:06.113,,,,,,,,,,,,,,,,,,,,,,,,,,,,,,,,,,,,,,,,,,/muse/elements/blink
2025-11-11 13:38:06.732,,,,,,,,,,,,,,,,,,,,,,,,,,,,,,,,,,,,,,,,,,/muse/elements/blink
2025-11-11 13:38:06.893,0.4631760722970716,-0.3334950514387533,0.7744061441910721,0.7758462333071159,0.4656005480455126,0.05772580551605005,0.989581317052264,1.105316745582893,0.973143463737247,0.211281434263877,0.8783205610638301,1.318678631154303,0.9906379347428524,1.033238364090068,0.8483440485715614,1.616460128726233,0.9486930810749292,0.9966770915584227,0.7281653807305647,1.481233208831989,758.3150183150184,763.1501831501831,772.8205128205128,851.3919413919414,594.3223443223443,0.289124,0.102844,0.963745,14.078827,1.413116,-7.559052,315897.435897,139172161.172161,81876263.736264,82.535408,1,4,1,1,1,30.000000
2025-11-11 13:38:07.755,,,,,,,,,,,,,,,,,,,,,,,,,,,,,,,,,,,,,,,,,,/muse/elements/jaw_clench
2025-11-11 13:38:07.884,0.4631760722970716,-0.3334950514387533,0.6214828054988076,0.7758462333071159,0.4656005480455126,0.05772580551605005,0.8411426243305877,1.105316745582893,0.973143463737247,0.211281434263877,0.7342930685616964,1.318678631154303,0.9906379347428524,1.033238364090068,0.8532639275751386,1.616460128726233,0.9486930810749292,0.9966770915584227,0.7800319073285864,1.481233208831989,594.7252747252747,788.9377289377289,745.8241758241759,736.959706959707,592.7106227106227,0.325562,0.232544,0.906250,5.809479,-0.186920,-43.657074,315091.575092,139117362.637363,81981025.641026,82.551285,1,2,1,1,2,30.000000
2025-11-11 13:38:08.780,,,,,,,,,,,,,,,,,,,,,,,,,,,,,,,,,,,,,,,,,,/muse/elements/blink
2025-11-11 13:38:08.884,0.4631760722970716,0.6105467281161476,0.6214828054988076,0.7758462333071159,0.4656005480455126,0.276081644402834,0.8411426243305877,1.105316745582893,0.973143463737247,0.507401084031444,0.7342930685616964,1.318678631154303,0.9906379347428524,0.511789280556737,0.8532639275751386,1.616460128726233,0.9486930810749292,0.22132784166059,0.7800319073285864,1.481233208831989,862.2710622710623,798.6080586080586,779.2673992673992,763.5531135531136,773.6263736263736,0.299500,0.069580,0.933899,-4.000092,-2.639313,-37.458801,319120.879121,139208424.908425,82210695.970696,82.551285,1,2,1,1,2,30.000000
2025-11-11 13:38:09.163,,,,,,,,,,,,,,,,,,,,,,,,,,,,,,,,,,,,,,,,,,/muse/elements/blink
2025-11-11 13:38:09.679,,,,,,,,,,,,,,,,,,,,,,,,,,,,,,,,,,,,,,,,,,/muse/elements/jaw_clench
2025-11-11 13:38:09.884,0.4631760722970716,0.3986624982042691,0.4551582853932809,0.7758462333071159,0.4656005480455126,0.2180310121009743,0.8403425055283885,1.105316745582893,0.973143463737247,0.6141250619493609,0.5770112562884003,1.318678631154303,0.9906379347428524,0.5337132113420171,0.9225371583833226,1.616460128726233,0.9486930810749292,0.4427883886943572,0.780935909354894,1.481233208831989,787.3260073260074,792.1611721611722,784.9084249084249,745.8241758241759,586.2637362637363,0.329224,0.117615,0.923401,-3.820648,-3.925323,-9.458160,327179.487179,138895750.915751,82325934.065934,82.551285,1,2,1,1,2,30.000000
2025-11-11 13:38:10.190,,,,,,,,,,,,,,,,,,,,,,,,,,,,,,,,,,,,,,,,,,/muse/elements/blink
2025-11-11 13:38:10.884,0.4631760722970716,0.05538224593681319,0.4612394792722034,0.7758462333071159,0.4656005480455126,0.01722234098856708,0.5348282850754296,1.105316745582893,0.973143463737247,0.5705334236912103,0.8015853840045082,1.318678631154303,0.9906379347428524,0.3987198761802626,0.8715439794770018,1.616460128726233,0.9486930810749292,0.4071696865435585,0.6415542535827441,1.481233208831989,894.908424908425,792.967032967033,804.2490842490843,792.967032967033,653.5531135531136,0.460144,-0.054993,0.908813,-2.041168,-2.714081,-3.932800,339267.399267,138953772.893773,82520952.380952,84.269035,1,2,1,1,2,30.000000
2025-11-11 13:38:11.402,,,,,,,,,,,,,,,,,,,,,,,,,,,,,,,,,,,,,,,,,,/muse/elements/blink
2025-11-11 13:38:11.884,0.4631760722970716,0.1140263787658322,0.4643198824125253,0.7758462333071159,0.4656005480455126,-0.05959329131295777,0.2401833331705493,1.105316745582893,0.973143463737247,0.5504951944459547,0.6983887542215417,1.318678631154303,0.9906379347428524,0.5180750441017504,0.6916168989116359,1.616460128726233,0.9486930810749292,0.2934138081508066,0.5707517712409823,1.481233208831989,836.4835164835165,789.7435897435897,808.6813186813187,782.0879120879121,860.6593406593407,0.416931,0.112061,0.878235,4.837494,-2.579498,9.174042,365054.945055,138863516.483516,82668424.908425,85.253845,1,2,1,1,2,30.000000
2025-11-11 13:38:12.883,0.4631760722970716,0.4090053191262714,0.5035646214952537,0.7758462333071159,0.4656005480455126,0.08939481531001581,0.3108022346772999,1.105316745582893,0.973143463737247,0.4895268393736992,0.6320401945077891,1.318678631154303,0.9906379347428524,0.5697665649827601,0.8689634334920798,1.616460128726233,0.9486930810749292,0.1727570299050647,0.9049695491778861,1.481233208831989,931.5750915750916,817.948717948718,821.5750915750916,848.1684981684982,800.6227106227107,0.428894,0.009583,0.884705,3.895416,-1.061707,11.746063,418241.758242,138920732.600733,82862637.362637,84.663155,1,2,1,1,2,30.000000
2025-11-11 13:38:13.884,0.4631760722970716,0.3291405324324779,0.4286524315679828,0.7758462333071159,0.4656005480455126,0.1930951877607091,0.1881269082736051,1.105316745582893,0.973143463737247,0.4694231104868458,0.7775281931584128,1.318678631154303,0.9906379347428524,0.4184547204325171,0.8675771532607468,1.616460128726233,0.9486930810749292,0.1435659775080625,0.8479396653298338,1.481233208831989,944.4688644688645,816.3369963369963,767.1794871794872,747.032967032967,645.0915750915751,0.441284,0.032837,0.869873,8.134766,-4.994507,28.763275,572161.172161,139093992.673993,83123736.263736,84.392296,1,2,1,1,2,30.000000
2025-11-11 13:38:13.959,,,,,,,,,,,,,,,,,,,,,,,,,,,,,,,,,,,,,,,,,,/muse/elements/blink
2025-11-11 13:38:14.884,0.4631760722970716,0.3218332435738144,0.4066262358553803,0.7758462333071159,0.4656005480455126,0.3804349723461999,0.1707455822475973,1.105316745582893,0.973143463737247,0.3168120217514822,0.8699412608165042,1.318678631154303,0.9906379347428524,0.409329606360708,0.9836816764407025,1.616460128726233,0.9486930810749292,0.2731532609706289,0.9895097597673923,1.481233208831989,604.7985347985348,793.3699633699634,803.040293040293,774.4322344322345,520.5860805860806,0.449951,-0.010742,0.905090,12.022705,1.674805,24.576263,568131.868132,139244688.644689,83268791.208791,84.709885,1,2,1,1,2,30.000000
2025-11-11 13:38:15.887,0.4631760722970716,0.2653233646055461,0.5418641572560035,0.7758462333071159,0.4656005480455126,0.220891104457502,0.1434982311594025,1.105316745582893,0.973143463737247,0.6745310994796793,0.9044891075670075,1.318678631154303,0.9906379347428524,0.3255826639022824,1.010323527836025,1.616460128726233,0.9486930810749292,0.328106508346468,0.9177719618166315,1.481233208831989,898.1318681318681,792.1611721611722,803.8461538461539,754.6886446886447,643.0769230769231,0.459229,0.028137,0.820190,10.863800,-0.179443,15.962982,321538.461538,139441318.681319,83542783.882784,83.453941,1,2,1,1,2,30.000000
2025-11-11 13:38:16.886,0.4631760722970716,0.03037090628136745,0.7567669674325401,1.288758210037346,0.4656005480455126,-0.04094260745930809,0.174406725980681,1.234997463222713,0.973143463737247,0.5180268825319905,0.5597483957260412,1.428646321575314,0.9906379347428524,0.4353026259288865,1.068364806090876,1.657177681594292,0.9486930810749292,0.2706780128504154,0.7776154276057509,1.505871223783406,1097.179487179487,799.0109890109891,784.1025641025641,854.2124542124542,749.047619047619,0.464417,0.098877,0.890625,12.665710,0.822449,34.752197,320732.600733,139700805.860806,83659633.699634,82.187569,1,1,1,1,1,30.000000
2025-11-11 13:38:17.132,,,,,,,,,,,,,,,,,,,,,,,,,,,,,,,,,,,,,,,,,,/muse/elements/blink
2025-11-11 13:38:17.324,,,,,,,,,,,,,,,,,,,,,,,,,,,,,,,,,,,,,,,,,,/muse/elements/blink
2025-11-11 13:38:17.889,0.4631760722970716,0.09301251646521819,0.8744158250752807,1.291408548671037,0.4656005480455126,-0.1046123887195056,0.06645086337426399,1.456033047318762,0.973143463737247,0.3638098004235124,0.3946105521467743,1.58714349038518,0.9906379347428524,0.5534137812691373,1.116464514724674,1.607412840865789,0.9486930810749292,0.3599767065684838,0.6435845769429888,1.487896347003024,749.047619047619,806.2637362637363,782.4908424908425,849.7802197802198,598.7545787545788,0.527100,-0.058716,0.845093,6.968384,-0.074768,9.114227,325567.765568,139601684.981685,83625787.545788,81.950882,1,1,1,1,1,30.000000
2025-11-11 13:38:18.645,,,,,,,,,,,,,,,,,,,,,,,,,,,,,,,,,,,,,,,,,,/muse/elements/blink
2025-11-11 13:38:18.883,0.4631760722970716,0.1806001035650437,0.9593643616620462,1.116549051101417,0.4656005480455126,0.1073130415298969,0.466961737064587,1.533638891389538,0.973143463737247,0.3737334088170611,0.8277048017288372,1.555087268754194,0.9906379347428524,0.4657890980524593,1.152932115978039,1.662018241109629,0.9486930810749292,0.2026434947113565,1.062374141156217,1.584554841077239,760.3296703296703,795.7875457875458,807.0695970695971,721.6483516483516,693.4432234432235,0.442322,0.076355,0.872498,14.243317,-5.944061,25.615540,328791.208791,139554139.194139,83620952.380952,81.367592,1,1,1,1,1,30.000000
2025-11-11 13:38:19.885,0.4631760722970716,0.1510076167768289,0.9779590834340649,1.290343915593666,0.4656005480455126,0.1480913956080607,0.4984996975267176,1.449847038527305,0.973143463737247,0.3554294554923269,0.9648889160287978,1.561767960065998,0.9906379347428524,0.4908074019287706,1.050911334423384,1.638074780670204,0.9486930810749292,0.2637064135363855,1.086598315479754,1.556457333355297,790.5494505494506,799.8168498168499,817.5457875457876,798.6080586080586,686.5934065934066,0.410706,-0.008789,0.876160,14.976044,7.073059,29.959564,343296.703297,139551721.611722,83543589.743590,79.786552,1,1,1,1,1,30.000000
2025-11-11 13:38:20.055,,,,,,,,,,,,,,,,,,,,,,,,,,,,,,,,,,,,,,,,,,/muse/elements/blink
2025-11-11 13:38:20.884,0.4631760722970716,0.3517593515169904,0.6212672364496764,1.290343915593666,0.4656005480455126,0.09436178523573961,0.4609143604676234,1.449847038527305,0.973143463737247,0.1460559296324465,0.7259362429586587,1.561767960065998,0.9906379347428524,0.4998527824625243,1.141969632505635,1.638074780670204,0.9486930810749292,0.2874954524173457,0.949613790844121,1.556457333355297,720.4395604395604,794.981684981685,780.8791208791209,765.9706959706959,685.3846153846154,0.413940,0.068970,0.900513,7.745972,-1.450500,5.084229,348131.868132,139482417.582418,83522637.362637,80.185265,1,2,1,1,2,30.000000
2025-11-11 13:38:21.885,0.4631760722970716,0.3333476047879809,0.7771633181215197,1.290343915593666,0.4656005480455126,-0.3141768695950752,0.4532276540602986,1.449847038527305,0.973143463737247,-0.003245289101175366,0.8512932417944338,1.561767960065998,0.9906379347428524,0.4452271782492752,1.078740167138499,1.638074780670204,0.9486930810749292,0.1612746605944641,0.7575048722016483,1.556457333355297,911.4285714285714,778.4615384615385,804.6520146520147,799.8168498168499,730.5128205128206,0.426514,0.166138,0.902100,1.465454,-0.979462,-10.871277,332014.652015,139512234.432234,83607252.747253,82.524887,1,2,1,1,2,30.000000
2025-11-11 13:38:22.884,0.4631760722970716,0.3893518477517334,0.7211456765470423,1.199460306094926,0.4656005480455126,0.1117964807599516,0.3015593113016063,1.313491721556378,0.973143463737247,0.3359330337604525,0.8282890861393276,1.081866756883894,0.9906379347428524,0.5234664929740025,1.10116331573976,1.502075228467193,0.9486930810749292,0.2930574423119965,0.7020620358131319,1.166646824650003,724.8717948717949,799.0109890109891,800.2197802197802,785.3113553113553,603.1868131868132,0.362122,0.059143,0.934326,2.175751,-4.329071,-2.130890,327179.487179,139537216.117216,83612087.912088,82.880569,1,1,1,1,1,30.000000
2025-11-11 13:38:23.419,,,,,,,,,,,,,,,,,,,,,,,,,,,,,,,,,,,,,,,,,,/muse/elements/blink
2025-11-11 13:38:23.884,0.4631760722970716,0.2041356458113384,0.5838141619988605,1.330078097457182,0.4656005480455126,0.004634039571916677,0.3576943087388845,1.307282372216021,0.973143463737247,0.3731241982711014,0.8867744755176429,1.295715066787526,0.9906379347428524,0.5574415674875585,0.907506415242104,1.414960913167179,0.9486930810749292,0.5295343113013111,0.708998636801058,1.241781082823163,618.0952380952381,794.981684981685,807.4725274725275,765.1648351648352,613.2600732600732,0.418274,0.151855,0.846130,-6.086121,-12.157288,-26.348267,318315.018315,139670183.150183,83689450.549451,82.118111,1,1,1,1,1,30.000000
2025-11-11 13:38:24.885,0.4631760722970716,-0.1882041127015636,0.4432622934870745,1.322362483761433,0.4656005480455126,-0.2229385938576839,0.3731037263577822,1.230548358380569,0.973143463737247,0.3280615623973483,0.9758898705368744,1.297019846097833,0.9906379347428524,0.3415284555985689,0.8412387447231094,1.234417443675168,0.9486930810749292,0.4266030867159871,0.718441896432826,1.1489030495201,1016.996336996337,806.2637362637363,814.3223443223443,828.021978021978,904.981684981685,0.385742,0.100281,0.861755,-6.459961,3.872986,-10.878754,319120.879121,139650842.490842,83699120.879121,81.875313,1,1,1,1,1,30.000000
2025-11-11 13:38:25.885,0.4631760722970716,-0.0004013505964307084,0.6593848741547881,1.060958722661966,0.4656005480455126,-0.2578929911201888,0.5519434883700534,1.178698468532368,0.973143463737247,0.4238091304470202,0.8845804947619615,1.077240000362495,0.9906379347428524,0.3878014048109122,0.8592117524217566,1.17126203933326,0.9486930810749292,0.4224235534129749,0.7548021888782472,1.104375457345923,820.7692307692308,778.0586080586081,817.1428571428571,764.7619047619048,674.5054945054945,0.486145,0.221375,0.888489,-10.370331,0.351410,-31.948395,318315.018315,139511428.571429,83539560.439560,81.875313,1,1,1,1,1,30.000000
2025-11-11 13:38:25.954,,,,,,,,,,,,,,,,,,,,,,,,,,,,,,,,,,,,,,,,,,/muse/elements/blink
2025-11-11 13:38:26.884,0.4631760722970716,0.1513637505674743,0.7485212237716546,1.047516700715028,0.4656005480455126,-0.02801858895172236,0.6871036406299802,0.9193742317269953,0.973143463737247,0.443491588948784,0.89243841393281,1.044152179052515,0.9906379347428524,0.7078489677648201,0.8722654612130658,1.330208612440568,0.9486930810749292,0.6309213071479837,0.6355477981718158,1.34604282598703,850.5860805860806,809.4871794871796,809.4871794871796,794.981684981685,602.3809523809524,0.451904,0.181580,1.080994,-15.566711,-1.779480,-20.426636,331208.791209,139567032.967033,83506520.146520,81.875313,1,1,1,1,1,30.000000
2025-11-11 13:38:27.450,,,,,,,,,,,,,,,,,,,,,,,,,,,,,,,,,,,,,,,,,,/muse/elements/blink
2025-11-11 13:38:27.884,0.4631760722970716,-0.1346361184596261,0.5890307454967519,1.259933624298246,0.4656005480455126,0.1297417446356919,0.4309914914979621,1.02562262032216,0.973143463737247,0.4949287652867538,0.686268160095769,0.9621958978876124,0.9906379347428524,0.8133994214539133,0.8603371189795989,1.03935019871988,0.9486930810749292,0.6968399163776685,0.7065355541321788,1.478284175331732,808.2783882783883,800.2197802197802,783.2967032967033,778.4615384615385,694.6520146520147,0.469055,0.231262,0.917175,-13.091888,-7.977753,-36.995239,332820.512821,139583956.043956,83520219.780220,81.923218,1,2,1,1,1,30.000000
2025-11-11 13:38:28.885,0.4631760722970716,-0.003049486983495059,0.9335093130056934,1.272836164656203,0.4656005480455126,0.1414725256169732,0.5650468960759305,1.039602996513818,0.973143463737247,0.5083472756630237,0.5982652198948887,0.9469612947235989,0.9906379347428524,0.5637517218391145,0.943786608080192,1.023931164133642,0.9486930810749292,0.4479414205290053,0.8357813852769396,1.485899311223723,963.0036630036631,791.7582417582418,823.1868131868132,833.6630036630037,678.1318681318681,0.417542,0.167297,0.916748,-12.351685,-2.115936,-22.819214,323150.183150,139598461.538462,83473479.853480,80.976593,1,1,1,1,1,30.000000
2025-11-11 13:38:29.885,0.4631760722970716,0.2138345824770654,0.790177823903064,0.2929206099916695,0.4656005480455126,-0.06782460442766536,0.5072502200456543,0.7557076952039501,0.973143463737247,0.3957272345426302,0.8574382227558589,0.5615068035310388,0.9906379347428524,0.7988829325150552,0.8721939004007424,1.440101568542592,0.9486930810749292,0.4823620183068236,0.8692776621077973,1.560957449040976,1111.684981684982,814.3223443223443,813.1135531135532,802.2344322344322,753.0769230769231,0.370850,0.063293,0.926208,-13.615265,-4.052429,-26.497803,315897.435897,139639560.439560,83475897.435897,80.357323,1,2,1,1,1,30.000000
2025-11-11 13:38:30.233,,,,,,,,,,,,,,,,,,,,,,,,,,,,,,,,,,,,,,,,,,/muse/elements/blink
2025-11-11 13:38:30.884,0.4631760722970716,0.2968527184804016,0.8962695192588428,0.2929206099916695,0.4656005480455126,-0.1397670889408234,0.5575994773426031,0.7557076952039501,0.973143463737247,0.7161711061492214,0.8162330727886403,0.5615068035310388,0.9906379347428524,1.00619106952542,0.778989866821064,1.440101568542592,0.9486930810749292,0.6386022399707684,0.6960829944807261,1.560957449040976,593.919413919414,799.0109890109891,792.1611721611722,726.8864468864469,774.0293040293041,0.414246,0.196655,0.907410,-14.946136,-10.818939,-31.589508,318315.018315,139514652.014652,83405787.545788,91.224571,1,1,1,1,1,30.000000
2025-11-11 13:38:31.618,,,,,,,,,,,,,,,,,,,,,,,,,,,,,,,,,,,,,,,,,,/muse/elements/blink
2025-11-11 13:38:31.724,,,,,,,,,,,,,,,,,,,,,,,,,,,,,,,,,,,,,,,,,,/muse/elements/jaw_clench
2025-11-11 13:38:31.885,0.4631760722970716,0.2731186016496719,0.7358003881283093,0.6089998393814967,0.4656005480455126,-0.121972949684644,0.4047350535127585,0.573267453058119,0.973143463737247,0.7852582154923977,0.5524223372632212,1.116511503774691,0.9906379347428524,0.9837297382421586,0.9452460256108218,1.540227571493946,0.9486930810749292,0.7429562313536635,0.5826687775700512,1.679010632865878,750.2564102564103,788.5347985347986,821.978021978022,786.5201465201466,670.8791208791209,0.390015,0.087158,0.946655,-6.684265,-7.932892,-26.460419,320732.600733,139538827.838828,83390476.190476,91.224571,1,1,1,1,1,30.000000
2025-11-11 13:38:32.885,0.4631760722970716,0.3337268219613102,0.7358003881283093,0.6089998393814967,0.4656005480455126,-0.119107702325737,0.4047350535127585,0.573267453058119,0.973143463737247,0.7473811114030129,0.5524223372632212,1.116511503774691,0.9906379347428524,0.9312123566649002,0.9452460256108218,1.540227571493946,0.9486930810749292,0.7448921687638597,0.5826687775700512,1.679010632865878,805.8608058608058,816.7399267399268,815.5311355311355,814.7252747252747,762.3443223443223,0.359131,0.140686,0.890686,-7.274933,-7.476807,-21.353760,330402.930403,139422783.882784,83348571.428571,87.544662,1,1,1,1,1,30.000000
2025-11-11 13:38:33.885,0.4631760722970716,0.1896111466775896,0.5615944452624667,0.6089998393814967,0.4656005480455126,0.1297085076189408,0.6121607359525423,0.573267453058119,0.973143463737247,0.6296046773052342,0.8396596272141592,1.116511503774691,0.9906379347428524,0.8792916495558825,1.145326020515731,1.540227571493946,0.9486930810749292,0.9304864550947388,1.093140835813486,1.679010632865878,911.0256410256411,815.5311355311355,807.0695970695971,768.3882783882784,969.8534798534798,0.365662,0.074097,0.864014,-1.996307,7.088013,4.889832,343296.703297,139499340.659341,83339706.959707,85.180031,1,2,1,1,2,30.000000
2025-11-11 13:38:34.893,0.4631760722970716,0.2335239024548314,0.7007489814546268,1.538369020382947,0.4656005480455126,0.2481949462562232,0.5455715262103986,1.276628132466497,0.973143463737247,0.7303474615045059,0.5039491941551332,1.290504395035019,0.9906379347428524,0.9867927560707211,1.254586217772255,1.549181015463591,0.9486930810749292,0.7528017593950631,0.99722238790267,1.433616588249928,824.3956043956044,813.5164835164835,826.8131868131868,752.2710622710623,581.8315018315019,0.396545,0.054077,0.985596,3.229980,-2.930908,5.891724,363443.223443,139558974.358974,83371941.391941,85.501740,1,1,1,1,1,30.000000
2025-11-11 13:38:35.269,,,,,,,,,,,,,,,,,,,,,,,,,,,,,,,,,,,,,,,,,,/muse/elements/blink
2025-11-11 13:38:35.885,0.4631760722970716,0.1517420978116646,0.7007489814546268,1.051764258042011,0.4656005480455126,0.186400197447689,0.5455715262103986,1.351832064532208,0.973143463737247,0.6703722894672125,0.5039491941551332,1.450038213163526,0.9906379347428524,0.8563673120561548,1.254586217772255,1.508361852538815,0.9486930810749292,0.7667382963820057,0.99722238790267,1.437933861689715,465.7875457875458,853.4065934065934,877.1794871794872,543.1501831501831,681.3553113553114,0.476257,0.172668,0.967957,2.586975,26.677246,38.228912,416630.036630,139615384.615385,83360659.340659,84.777115,1,1,1,1,1,30.000000
2025-11-11 13:38:36.000,,,,,,,,,,,,,,,,,,,,,,,,,,,,,,,,,,,,,,,,,,/muse/elements/jaw_clench
2025-11-11 13:38:36.064,,,,,,,,,,,,,,,,,,,,,,,,,,,,,,,,,,,,,,,,,,/muse/elements/blink
2025-11-11 13:38:36.213,,,,,,,,,,,,,,,,,,,,,,,,,,,,,,,,,,,,,,,,,,/muse/elements/jaw_clench
2025-11-11 13:38:36.705,,,,,,,,,,,,,,,,,,,,,,,,,,,,,,,,,,,,,,,,,,/muse/elements/blink
2025-11-11 13:38:36.889,0.4631760722970716,-0.3432940293807013,0.7007489814546268,0.9909494913532784,0.4656005480455126,0.1706548671205404,0.5455715262103986,1.432544994997212,0.973143463737247,0.4424011396634901,0.5039491941551332,1.42181973302992,0.9906379347428524,0.6527138633740491,1.254586217772255,1.530184708718599,0.9486930810749292,0.84281978316289,0.99722238790267,1.273320327480452,871.1355311355312,790.952380952381,793.3699633699634,831.2454212454213,976.7032967032967,0.019592,-0.017883,0.982605,-2.594452,-3.805695,24.008026,585054.945055,139646007.326007,82918241.758242,85.099838,1,1,1,1,1,30.000000
2025-11-11 13:38:37.833,,,,,,,,,,,,,,,,,,,,,,,,,,,,,,,,,,,,,,,,,,/muse/elements/jaw_clench
2025-11-11 13:38:37.885,0.4631760722970716,-0.42209076173378,0.7007489814546268,1.018384250146376,0.4656005480455126,0.1687635527454505,0.5455715262103986,1.413328157862648,0.973143463737247,0.4362086416181317,0.5039491941551332,1.373954065891955,0.9906379347428524,0.6174228714304952,1.254586217772255,1.529171717227039,0.9486930810749292,0.8570304519925388,0.99722238790267,1.19924796655045,859.8534798534798,798.2051282051282,799.4139194139194,829.6336996336996,619.7069597069598,0.033875,0.040100,0.994873,-1.943970,-7.611389,22.968750,1067765.567766,139642783.882784,82641025.641026,85.235298,1,1,1,1,1,30.000000
2025-11-11 13:38:38.324,,,,,,,,,,,,,,,,,,,,,,,,,,,,,,,,,,,,,,,,,,/muse/elements/blink
2025-11-11 13:38:38.516,,,,,,,,,,,,,,,,,,,,,,,,,,,,,,,,,,,,,,,,,,/muse/elements/blink
2025-11-11 13:38:38.892,0.4631760722970716,-0.42209076173378,0.7007489814546268,1.018384250146376,0.4656005480455126,0.1687635527454505,0.5455715262103986,1.413328157862648,0.973143463737247,0.4362086416181317,0.5039491941551332,1.373954065891955,0.9906379347428524,0.6174228714304952,1.254586217772255,1.529171717227039,0.9486930810749292,0.8570304519925388,0.99722238790267,1.19924796655045,1049.230769230769,856.6300366300367,824.3956043956044,710.3663003663004,649.5238095238095,0.352966,0.017212,0.910034,18.564911,-4.089813,34.161530,490769.230769,139623443.223443,82932747.252747,89.411362,1,2,1,1,2,30.000000
2025-11-11 13:38:38.943,,,,,,,,,,,,,,,,,,,,,,,,,,,,,,,,,,,,,,,,,,/muse/elements/jaw_clench
2025-11-11 13:38:39.029,,,,,,,,,,,,,,,,,,,,,,,,,,,,,,,,,,,,,,,,,,/muse/elements/blink
2025-11-11 13:38:39.136,,,,,,,,,,,,,,,,,,,,,,,,,,,,,,,,,,,,,,,,,,/muse/elements/jaw_clench
2025-11-11 13:38:39.865,,,,,,,,,,,,,,,,,,,,,,,,,,,,,,,,,,,,,,,,,,/muse/elements/jaw_clench
2025-11-11 13:38:39.885,0.4631760722970716,-0.42209076173378,0.7007489814546268,1.018384250146376,0.4656005480455126,0.1687635527454505,0.5455715262103986,1.413328157862648,0.973143463737247,0.4362086416181317,0.5039491941551332,1.373954065891955,0.9906379347428524,0.6174228714304952,1.254586217772255,1.529171717227039,0.9486930810749292,0.8570304519925388,0.99722238790267,1.19924796655045,487.1428571428572,793.3699633699634,878.7912087912089,817.5457875457876,883.6263736263736,0.388062,0.039246,0.888000,4.889832,0.261688,17.705078,320732.600733,140141611.721612,83124542.124542,93.282677,1,2,1,1,2,30.000000
2025-11-11 13:38:40.228,,,,,,,,,,,,,,,,,,,,,,,,,,,,,,,,,,,,,,,,,,/muse/elements/jaw_clench
2025-11-11 13:38:40.885,0.4631760722970716,0.5777307203428896,0.7007489814546268,1.018384250146376,0.4656005480455126,0.2749601790421329,0.5455715262103986,1.413328157862648,0.973143463737247,0.2529013708127719,0.5039491941551332,1.373954065891955,0.9906379347428524,0.894275450992812,1.254586217772255,1.529171717227039,0.9486930810749292,0.5517744168158443,0.99722238790267,1.19924796655045,748.6446886446887,784.9084249084249,802.2344322344322,763.956043956044,694.6520146520147,0.396790,0.108643,0.937927,17.106934,1.540222,39.709320,323956.043956,139982857.142857,82942417.582418,91.221069,1,2,1,1,2,30.000000
2025-11-11 13:38:41.268,,,,,,,,,,,,,,,,,,,,,,,,,,,,,,,,,,,,,,,,,,/muse/elements/blink
2025-11-11 13:38:41.885,0.4631760722970716,0.4720148430034115,0.7007489814546268,1.126871134201547,0.4656005480455126,0.07741945427884687,0.5455715262103986,0.7056017382836797,0.973143463737247,0.3148897711955205,0.5039491941551332,1.033311383097985,0.9906379347428524,0.8622229460211018,1.254586217772255,1.599984902585706,0.9486930810749292,0.6682305547639638,0.99722238790267,1.402574375687933,899.3406593406594,837.2893772893773,800.6227106227107,854.6153846153846,675.7142857142858,0.390320,0.028076,0.915161,9.054413,2.534637,16.792908,328791.208791,139614578.754579,82798974.358974,89.974907,1,1,1,1,1,30.000000
2025-11-11 13:38:42.397,,,,,,,,,,,,,,,,,,,,,,,,,,,,,,,,,,,,,,,,,,/muse/elements/blink
2025-11-11 13:38:42.483,,,,,,,,,,,,,,,,,,,,,,,,,,,,,,,,,,,,,,,,,,/muse/elements/jaw_clench
2025-11-11 13:38:42.885,0.4631760722970716,0.3508090130672669,0.7007489814546268,1.060104297870804,0.4656005480455126,0.2962226694805134,0.5455715262103986,0.7350632564912681,0.973143463737247,0.2300523113225568,0.5039491941551332,1.0418078923903,0.9906379347428524,0.8303674323005722,1.254586217772255,1.538112362055761,0.9486930810749292,0.703617941216201,0.99722238790267,1.420039025446162,809.0842490842491,791.3553113553114,819.5604395604396,835.2747252747253,926.3369963369963,0.352478,0.134216,0.922058,10.377808,0.194397,23.851013,331208.791209,139386520.146520,82732087.912088,85.820419,1,1,1,1,1,30.000000
2025-11-11 13:38:43.886,0.4631760722970716,0.3741400425300153,0.7007489814546268,0.6385260569701563,0.4656005480455126,0.319913661611365,0.5455715262103986,1.098411716637335,0.973143463737247,0.6143038649224978,0.5039491941551332,0.8789993496294225,0.9906379347428524,0.8544702640878638,1.254586217772255,1.3798278431294,0.9486930810749292,0.5890655390454775,0.99722238790267,1.145948295897866,743.0036630036631,803.040293040293,794.1758241758242,723.6630036630037,545.5677655677656,0.378540,0.040466,0.898743,6.669312,0.074768,17.009735,344102.564103,139253553.113553,82798974.358974,82.959152,1,1,1,1,1,30.000000
2025-11-11 13:38:43.995,,,,,,,,,,,,,,,,,,,,,,,,,,,,,,,,,,,,,,,,,,/muse/elements/jaw_clench
2025-11-11 13:38:44.885,0.4631760722970716,0.1386296000224898,0.7007489814546268,0.5721366096919502,0.4656005480455126,0.05674310092989478,0.5455715262103986,0.9749772022396289,0.973143463737247,0.8749868024202653,0.5039491941551332,1.123704460081836,0.9906379347428524,0.8256068231764142,1.254586217772255,1.296665892942238,0.9486930810749292,0.4891305587572545,0.99722238790267,1.406280516644857,772.4175824175825,813.5164835164835,809.4871794871796,815.934065934066,637.8388278388279,0.365112,0.072937,0.925049,11.110535,2.108459,6.938477,344102.564103,139247912.087912,82865054.945055,82.844238,1,1,1,1,1,30.000000
2025-11-11 13:38:45.885,0.4631760722970716,0.2299420868404091,0.7007489814546268,0.6279474148830446,0.4656005480455126,0.05889513715028225,0.5455715262103986,0.8003475984656186,0.973143463737247,0.8470709933785656,0.5039491941551332,1.118036814146214,0.9906379347428524,0.714720201307135,1.254586217772255,1.186011501533151,0.9486930810749292,0.5902637430489805,0.99722238790267,1.578844177969668,890.0732600732601,803.4432234432235,804.2490842490843,875.1648351648352,756.7032967032967,0.331482,0.152954,0.909607,1.973877,-0.568237,-0.082245,332820.512821,139503369.963370,83007692.307692,82.844238,1,1,1,1,1,30.000000
2025-11-11 13:38:46.885,0.4631760722970716,0.08460712480393361,0.7007489814546268,0.6279474148830446,0.4656005480455126,-0.07471987391407271,0.5455715262103986,0.8003475984656186,0.973143463737247,0.4829637868130863,0.5039491941551332,1.118036814146214,0.9906379347428524,0.6504573941490936,1.254586217772255,1.186011501533151,0.9486930810749292,0.475608743080546,0.99722238790267,1.578844177969668,976.3003663003664,798.6080586080586,817.5457875457876,809.0842490842491,642.6739926739926,0.376038,0.045410,0.914490,-3.671112,-6.534729,-1.091614,327179.487179,139390549.450549,82982710.622711,83.503029,1,2,1,1,2,30.000000
2025-11-11 13:38:47.885,0.4631760722970716,-0.1053009664594497,0.7007489814546268,0.9655942232876016,0.4656005480455126,-0.1385166039378392,0.5455715262103986,0.9212184478055523,0.973143463737247,0.5797065618723071,0.5039491941551332,0.9615268145764128,0.9906379347428524,0.7010175569378039,1.254586217772255,1.289806634119288,0.9486930810749292,0.3704504786027479,0.99722238790267,1.387750210389401,921.9047619047619,812.7106227106227,795.3846153846154,820.3663003663004,684.1758241758242,0.410461,0.100464,0.902527,-2.878571,3.282318,-11.648865,318315.018315,139514652.014652,83088278.388278,83.503029,1,1,1,1,1,30.000000
2025-11-11 13:38:48.875,,,,,,,,,,,,,,,,,,,,,,,,,,,,,,,,,,,,,,,,,,/muse/elements/blink
2025-11-11 13:38:48.885,0.4631760722970716,0.0906417938118018,0.5277862652823924,1.083997154236178,0.4656005480455126,-0.0755341761140237,0.4362004334954297,0.9592161586909341,0.973143463737247,0.5567506379496059,0.7972478725641328,1.126983997448718,0.9906379347428524,0.7316057912352102,1.008406759943199,1.303680551233561,0.9486930810749292,0.4784395073609308,0.9013810109678808,1.33051717382013,719.2307692307693,787.3260073260074,823.1868131868132,840.9157509157509,686.5934065934066,0.355408,0.168945,1.090942,-6.841278,-5.689850,-4.501038,317509.157509,139457435.897436,83168864.468864,83.484673,1,1,1,1,1,30.000000
2025-11-11 13:38:49.724,,,,,,,,,,,,,,,,,,,,,,,,,,,,,,,,,,,,,,,,,,/muse/elements/blink
2025-11-11 13:38:49.885,0.4631760722970716,0.6941171851643724,0.1813561269429317,1.306507651965729,0.4656005480455126,0.3664115970213927,0.486574652275417,0.935626005624509,0.973143463737247,0.6385092235410522,0.829804077106107,1.069328633797361,0.9906379347428524,0.8615113133057789,0.9567419603228227,1.412052522251902,0.9486930810749292,0.7187905627831012,0.9089347109346571,1.28733870252893,780.0732600732601,814.7252747252747,810.6959706959707,819.5604395604396,618.901098901099,0.429932,0.077698,0.899048,-25.144501,4.291687,-38.408356,327179.487179,139259194.139194,83198681.318681,83.250496,1,1,1,1,1,30.000000
2025-11-11 13:38:50.886,0.4631760722970716,0.6941171851643724,0.05364372110668265,1.306507651965729,0.4656005480455126,0.3664115970213927,0.4224985762897377,0.935626005624509,0.973143463737247,0.6385092235410522,0.8118241052120184,1.069328633797361,0.9906379347428524,0.8615113133057789,0.9212685259581044,1.412052522251902,0.9486930810749292,0.7187905627831012,0.9019200165445183,1.28733870252893,953.7362637362637,798.2051282051282,790.5494505494506,772.8205128205128,803.8461538461539,0.375427,0.184875,0.883301,-5.742188,-10.288086,-19.163055,332014.652015,139413113.553114,83266373.626374,83.890587,1,1,1,1,1,30.000000
2025-11-11 13:38:51.535,,,,,,,,,,,,,,,,,,,,,,,,,,,,,,,,,,,,,,,,,,/muse/elements/blink
2025-11-11 13:38:51.884,0.4631760722970716,-0.07806355146782983,0.5373152284123914,0.6256241923252747,0.4656005480455126,-0.126015822989944,0.1710408835155699,1.367648705338399,0.973143463737247,0.4500654867272215,0.5526182802412417,1.374174882821602,0.9906379347428524,0.8083056273895932,1.092321834108856,1.359096369694308,0.9486930810749292,0.8425555532449748,0.8407939697004193,1.499729714236359,761.5384615384615,802.2344322344322,776.8498168498169,745.0183150183151,741.7948717948718,0.462219,0.083801,0.868774,-9.443207,-12.770386,-19.664001,330402.930403,139390549.450549,83275238.095238,81.552299,1,1,1,1,1,30.000000
2025-11-11 13:38:52.886,0.4631760722970716,0.2945494132199945,0.7494449824231351,0.3805175479018024,0.4656005480455126,0.1506972535450675,0.7807059168400216,0.8296274825122958,0.973143463737247,0.5631868608175934,0.8711942753937305,0.9389194027476598,0.9906379347428524,0.7114259920006369,1.045474921489812,1.534538398432487,0.9486930810749292,0.6085584619271441,0.7451934660749104,1.330798878329422,499.6336996336996,813.1135531135532,809.4871794871796,755.4945054945055,510.1098901098901,0.398376,0.175354,0.887085,-9.899292,2.429962,-19.305115,318315.018315,139460659.340659,83364688.644689,80.607803,1,1,1,1,1,30.000000
2025-11-11 13:38:53.885,0.4631760722970716,0.1350003181651896,0.8061544045769123,0.5263246407294904,0.4656005480455126,0.2299121401108573,0.7808977528636319,0.8996255934760046,0.973143463737247,0.7026864649531331,0.829006559794624,1.230950483338964,0.9906379347428524,0.6269427100997003,0.9419137829732969,1.446091333364333,0.9486930810749292,0.6110781987217014,0.905121897773426,1.29895197087129,728.901098901099,794.981684981685,797.3992673992674,820.7692307692308,748.6446886446887,0.437927,0.153198,1.006836,-18.856506,-7.409515,-23.469696,315897.435897,139488058.608059,83366300.366300,80.607803,1,1,1,1,1,30.000000
2025-11-11 13:38:54.258,,,,,,,,,,,,,,,,,,,,,,,,,,,,,,,,,,,,,,,,,,/muse/elements/blink
2025-11-11 13:38:54.886,0.4631760722970716,0.1086229671195645,0.7421000607161051,0.65526947889778,0.4656005480455126,0.1591116662828908,0.4078343670462306,0.9551722466812661,0.973143463737247,0.7889581258617503,0.4076960574746369,1.209858541248182,0.9906379347428524,0.6592276009201473,0.7530985189565591,1.371875463858886,0.9486930810749292,0.8934038776289982,0.9353719270740666,1.271508182612342,901.7582417582418,805.8608058608058,782.893772893773,761.941391941392,935.2014652014652,0.467773,0.107910,0.799683,-15.955505,-7.289886,-36.412048,315091.575092,139427619.047619,83355824.175824,80.959381,1,1,1,1,1,30.000000
2025-11-11 13:38:55.813,,,,,,,,,,,,,,,,,,,,,,,,,,,,,,,,,,,,,,,,,,/muse/elements/blink
2025-11-11 13:38:55.885,0.4631760722970716,-0.06573007174007475,0.9912538066662742,0.65526947889778,0.4656005480455126,0.4813440486272674,0.7331093996690164,0.9551722466812661,0.973143463737247,0.725300896457675,0.6213645698142114,1.209858541248182,0.9906379347428524,0.5903756887922331,0.9772443500622907,1.371875463858886,0.9486930810749292,0.5803735500029138,0.5799581240023677,1.271508182612342,841.7216117216118,809.8901098901099,816.3369963369963,812.7106227106227,612.0512820512821,0.418518,0.153564,0.903687,-5.936584,-8.000183,-16.015320,319120.879121,139446153.846154,83438021.978022,80.904617,1,1,1,1,1,30.000000
2025-11-11 13:38:56.886,0.4631760722970716,0.2613660033967544,0.9176481752736438,0.65526947889778,0.4656005480455126,0.2945689720773099,0.6261010009286577,0.9551722466812661,0.973143463737247,0.6697295832350195,0.7019283797705705,1.209858541248182,0.9906379347428524,0.7308861904375973,0.9785019540191525,1.371875463858886,0.9486930810749292,0.6080358147753282,0.7870871807405281,1.271508182612342,757.5091575091575,802.6373626373627,806.6666666666667,810.6959706959707,681.3553113553114,0.389099,0.139832,0.916138,-5.166473,-6.332855,-7.020721,327985.347985,139570256.410256,83504908.424908,80.421555,1,2,1,1,2,30.000000
2025-11-11 13:38:57.886,0.4631760722970716,0.2757512486596587,0.874222258508166,0.65526947889778,0.4656005480455126,0.1074635116738548,0.6065159926551933,0.9551722466812661,0.973143463737247,0.5479877579807692,0.6123110556584223,1.209858541248182,0.9906379347428524,0.7005840636487696,1.021997125116913,1.371875463858886,0.9486930810749292,0.5976774077107447,0.8830011365806139,1.271508182612342,814.7252747252747,789.7435897435897,787.3260073260074,730.1098901098901,869.5238095238095,0.342834,0.159058,0.865417,-9.061890,4.762726,-16.067657,340073.260073,139438901.098901,83525054.945055,81.468407,1,2,1,1,2,30.000000
2025-11-11 13:38:58.886,0.4631760722970716,0.06061143029075375,0.7901053642812158,1.083487839788004,0.4656005480455126,0.1145627301159308,0.5036344822695051,1.396326746752866,0.973143463737247,0.4970953613118313,0.5230982585662227,1.302856820767237,0.9906379347428524,0.7084506835341733,0.9866794070404675,1.310508977281871,0.9486930810749292,0.5418126475782696,0.9970757095817004,1.254303633839654,920.6959706959707,803.4432234432235,815.5311355311355,833.2600732600733,578.6080586080586,0.409180,0.113647,0.928223,-0.014954,1.121521,6.213226,355384.615385,139441318.681319,83602417.582418,83.454529,1,1,1,1,1,30.000000
2025-11-11 13:38:58.961,,,,,,,,,,,,,,,,,,,,,,,,,,,,,,,,,,,,,,,,,,/muse/elements/blink
2025-11-11 13:38:59.858,,,,,,,,,,,,,,,,,,,,,,,,,,,,,,,,,,,,,,,,,,/muse/elements/blink
2025-11-11 13:38:59.891,0.4631760722970716,0.346252413581979,0.5844392546060492,1.061587352992717,0.4656005480455126,0.2352260475794701,0.3906475919332684,1.312505019728334,0.973143463737247,0.5927005902170687,0.8295992142913453,1.305022110605199,0.9906379347428524,0.553533755347599,1.106887629601215,1.3085737552493,0.9486930810749292,0.4662173440686042,0.9368188317909293,1.258693622045769,707.5457875457876,786.9230769230769,866.3003663003664,830.0366300366301,643.8827838827839,0.301086,0.086853,1.011902,6.370239,-0.157013,6.220703,378754.578755,139668571.428571,83725714.285714,84.081924,1,1,1,1,1,30.000000
2025-11-11 13:39:00.885,0.4631760722970716,0.3867021959729003,0.6145085573921844,1.120728736971173,0.4656005480455126,0.2808814559414199,0.370510833860397,1.327704266558708,0.973143463737247,0.4736345846797764,0.5314048801829777,1.094270132905712,0.9906379347428524,0.668208501822753,0.9278262055974863,1.344669162530484,0.9486930810749292,0.6160977739841382,0.9680274185223237,1.1694227968999,616.080586080586,772.8205128205128,826.007326007326,802.6373626373627,623.3333333333334,0.307434,0.131287,0.891235,6.504822,1.914062,13.488159,475457.875458,139598461.538462,83580659.340659,80.941277,1,1,1,1,1,30.000000
2025-11-11 13:39:01.672,,,,,,,,,,,,,,,,,,,,,,,,,,,,,,,,,,,,,,,,,,/muse/elements/blink
2025-11-11 13:39:01.822,,,,,,,,,,,,,,,,,,,,,,,,,,,,,,,,,,,,,,,,,,/muse/elements/jaw_clench
2025-11-11 13:39:01.886,0.4631760722970716,0.6647130501130109,0.6145085573921844,1.120728736971173,0.4656005480455126,-0.1493007498580957,0.370510833860397,1.327704266558708,0.973143463737247,0.06774379504002764,0.5314048801829777,1.094270132905712,0.9906379347428524,0.7110197700892202,0.9278262055974863,1.344669162530484,0.9486930810749292,0.5762183969673874,0.9680274185223237,1.1694227968999,772.4175824175825,799.4139194139194,826.4102564102565,770,662.8205128205128,0.391785,0.011475,0.903687,5.046844,2.243042,17.084503,576190.476190,139746739.926740,83587106.227106,82.373672,1,2,1,1,2,30.000000
2025-11-11 13:39:02.611,,,,,,,,,,,,,,,,,,,,,,,,,,,,,,,,,,,,,,,,,,/muse/elements/jaw_clench
2025-11-11 13:39:02.886,0.4631760722970716,0.664807168509472,0.6145085573921844,1.120728736971173,0.4656005480455126,0.1676905128341973,0.370510833860397,1.327704266558708,0.973143463737247,0.4373042311386167,0.5314048801829777,1.094270132905712,0.9906379347428524,0.7411592396157475,0.9278262055974863,1.344669162530484,0.9486930810749292,0.5672686730018672,0.9680274185223237,1.1694227968999,760.7326007326008,806.2637362637363,802.6373626373627,849.7802197802198,1226.923076923077,0.432190,0.127869,0.921875,6.445007,-0.157013,23.439789,550402.930403,139670183.150183,83466227.106227,82.964165,1,2,1,1,2,30.000000
2025-11-11 13:39:03.886,0.4631760722970716,0.281593342643509,0.6145085573921844,1.028902644232495,0.4656005480455126,-0.009827829016891162,0.370510833860397,0.8729968076067643,0.973143463737247,0.6706612762276455,0.5314048801829777,1.251256054079109,0.9906379347428524,0.7326032510579028,0.9278262055974863,1.561569484050918,0.9486930810749292,0.5739020162248528,0.9680274185223237,1.418282061003566,931.1721611721612,799.4139194139194,746.2271062271062,771.2087912087912,670.8791208791209,0.420166,0.046875,0.914246,15.992889,4.628143,29.682922,319120.879121,139711282.051282,83421098.901099,82.964165,1,1,1,1,1,30.000000
2025-11-11 13:39:04.886,0.4631760722970716,0.2739535954060304,0.6145085573921844,1.274670817822784,0.4656005480455126,-0.01792705662338112,0.370510833860397,1.052349889840976,0.973143463737247,0.6636015178536955,0.5314048801829777,1.117473710459407,0.9906379347428524,0.5612932956941543,0.9278262055974863,1.427286384269314,0.9486930810749292,0.4909654254988159,0.9680274185223237,1.315147699578825,656.3736263736264,807.4725274725275,812.3076923076924,811.0989010989011,551.2087912087912,0.377625,0.052246,0.934387,15.686340,6.751556,20.920105,320732.600733,139697582.417582,83412234.432234,82.964165,1,1,1,1,1,30.000000
2025-11-11 13:39:05.886,0.4631760722970716,0.2803874368089684,0.6145085573921844,1.352888954248707,0.4656005480455126,0.08449699723190171,0.370510833860397,1.151688247728786,0.973143463737247,0.5983279684709861,0.5314048801829777,1.133916789297081,0.9906379347428524,0.6041319602066476,0.9278262055974863,1.621249472224064,0.9486930810749292,0.6007869785910651,0.9680274185223237,1.530116687334722,678.5347985347986,786.1172161172161,818.7545787545788,808.2783882783883,1309.120879120879,0.371582,0.106689,0.905334,10.168457,-0.717773,34.886780,324761.904762,139592820.512821,83329230.769231,83.336258,1,1,1,1,1,30.000000
2025-11-11 13:39:06.358,,,,,,,,,,,,,,,,,,,,,,,,,,,,,,,,,,,,,,,,,,/muse/elements/blink
2025-11-11 13:39:06.886,0.4631760722970716,0.2649365067737905,0.6145085573921844,1.214854950646989,0.4656005480455126,0.143668959913354,0.370510833860397,1.251680673949556,0.973143463737247,0.6661189191215984,0.5314048801829777,1.193189846582276,0.9906379347428524,0.5817770109132007,0.9278262055974863,1.641098847449299,0.9486930810749292,0.7812635989335931,0.9680274185223237,1.572005961934685,811.0989010989011,807.0695970695971,818.7545787545788,805.8608058608058,702.7106227106227,0.319702,0.017273,0.980713,7.155304,-0.755157,31.552124,338461.538462,139691135.531136,83291355.311355,83.441589,1,1,1,1,1,30.000000
2025-11-11 13:39:07.763,,,,,,,,,,,,,,,,,,,,,,,,,,,,,,,,,,,,,,,,,,/muse/elements/blink
2025-11-11 13:39:07.886,0.4631760722970716,0.3650527943977215,0.6145085573921844,1.280900577755189,0.4656005480455126,0.01933288559726626,0.370510833860397,1.322021876595247,0.973143463737247,0.6075344612863618,0.5314048801829777,0.9914775839949405,0.9906379347428524,0.6415848157865147,0.9278262055974863,1.598159360583786,0.9486930810749292,0.7348059610064858,0.9680274185223237,1.531557981298485,825.6043956043957,807.8754578754579,761.5384615384615,821.5750915750916,586.2637362637363,0.391174,0.098694,0.900269,9.637604,6.302948,16.942444,340073.260073,139745934.065934,83344542.124542,81.477592,1,1,1,1,1,30.000000
2025-11-11 13:39:08.804,,,,,,,,,,,,,,,,,,,,,,,,,,,,,,,,,,,,,,,,,,/muse/elements/blink
2025-11-11 13:39:08.886,0.4631760722970716,0.5680880721506447,0.6145085573921844,0.7092798706223049,0.4656005480455126,0.3259790399571773,0.370510833860397,1.098751471650981,0.973143463737247,0.488676922921855,0.5314048801829777,1.250975863277297,0.9906379347428524,0.7976481047562544,0.9278262055974863,1.453505131590197,0.9486930810749292,0.7151664479107415,0.9680274185223237,1.381520749374302,749.4505494505495,850.989010989011,765.5677655677656,711.5750915750916,1097.985347985348,0.372498,0.093994,0.922180,8.942261,0.186920,18.273315,353772.893773,139692747.252747,83267179.487179,81.561562,1,1,1,1,1,30.000000
2025-11-11 13:39:09.122,,,,,,,,,,,,,,,,,,,,,,,,,,,,,,,,,,,,,,,,,,/muse/elements/blink
2025-11-11 13:39:09.399,,,,,,,,,,,,,,,,,,,,,,,,,,,,,,,,,,,,,,,,,,/muse/elements/blink
2025-11-11 13:39:09.886,0.4631760722970716,0.3467127138151356,0.6145085573921844,0.8361780865302496,0.4656005480455126,0.2159127284561532,0.370510833860397,1.013098508575202,0.973143463737247,0.2964525358037756,0.5314048801829777,1.215675971366647,0.9906379347428524,0.8141727529010162,0.9278262055974863,1.406831363008998,0.9486930810749292,0.566418065542353,0.9680274185223237,1.356819560642393,765.5677655677656,791.3553113553114,780.4761904761905,772.014652014652,627.7655677655678,0.358643,0.063416,0.895752,1.629944,-3.476715,5.996399,348131.868132,139880512.820513,83249450.549451,82.436554,1,1,1,1,1,30.000000
2025-11-11 13:39:10.886,0.4631760722970716,0.03526204767094746,0.6145085573921844,1.093372346280609,0.4656005480455126,0.2295637553853015,0.370510833860397,0.9336203164250517,0.973143463737247,0.5069717461969284,0.5314048801829777,0.9509087685425749,0.9906379347428524,0.8445200441563853,0.9278262055974863,1.349577246195157,0.9486930810749292,0.480091001768249,0.9680274185223237,0.9859457235089829,761.941391941392,803.8461538461539,792.1611721611722,815.1282051282052,656.3736263736264,0.320862,0.132446,0.907959,1.629944,2.093506,-1.906586,336849.816850,139887765.567766,83213992.673993,81.836334,1,1,1,1,1,30.000000
2025-11-11 13:39:11.826,,,,,,,,,,,,,,,,,,,,,,,,,,,,,,,,,,,,,,,,,,/muse/elements/blink
2025-11-11 13:39:11.886,0.4631760722970716,0.3673907613143621,0.6145085573921844,1.200733915660579,0.4656005480455126,0.3281256652905059,0.370510833860397,1.120724043664697,0.973143463737247,0.5985355210208806,0.5314048801829777,1.105792081638809,0.9906379347428524,0.7536596571872157,0.9278262055974863,1.390971598463153,0.9486930810749292,0.5383183973097283,0.9680274185223237,1.010537294855059,767.1794871794872,795.7875457875458,786.1172161172161,763.956043956044,1238.205128205128,0.413025,0.159973,0.940308,2.945862,0.740204,0.082245,325567.765568,139805567.765568,83097142.857143,81.593765,1,1,1,1,1,30.000000
2025-11-11 13:39:12.530,,,,,,,,,,,,,,,,,,,,,,,,,,,,,,,,,,,,,,,,,,/muse/elements/blink
2025-11-11 13:39:12.885,0.4631760722970716,0.1217497946883209,0.6145085573921844,1.042478959374365,0.4656005480455126,-0.07857220958242259,0.370510833860397,0.8264506110600688,0.973143463737247,0.5678887930581739,0.5314048801829777,0.8611932121101425,0.9906379347428524,0.7944196939833619,0.9278262055974863,1.349189460283394,0.9486930810749292,0.4847381642685161,0.9680274185223237,0.998028217821599,785.7142857142858,815.1282051282052,784.9084249084249,827.2161172161173,872.7472527472528,0.359314,0.100403,0.943787,-4.523468,-0.897217,-9.936676,316703.296703,139654065.934066,83184981.684982,82.003036,1,1,1,1,1,30.000000
2025-11-11 13:39:13.886,0.4631760722970716,0.1624602750024575,0.6145085573921844,0.8595843115563163,0.4656005480455126,0.1861472667916568,0.370510833860397,0.6764745215492172,0.973143463737247,0.51448587092739,0.5314048801829777,0.8578200299462374,0.9906379347428524,0.8659328098959369,0.9278262055974863,1.323741269277907,0.9486930810749292,0.740246784812633,0.9680274185223237,0.9510687680656661,678.5347985347986,788.1318681318681,822.7838827838829,768.3882783882784,577.3992673992674,0.391479,0.153198,0.891785,-4.583282,-4.426270,-13.570404,318315.018315,139480000.000000,83027032.967033,83.393463,1,1,1,1,1,30.000000
2025-11-11 13:39:13.995,,,,,,,,,,,,,,,,,,,,,,,,,,,,,,,,,,,,,,,,,,/muse/elements/blink
2025-11-11 13:39:14.886,0.4631760722970716,0.1662451322694884,0.7149142535623564,0.9970655174042138,0.4656005480455126,0.1131442948044831,0.7776897169568393,1.300347494900028,0.973143463737247,0.5642770705803841,0.9069414902365993,1.303647785925172,0.9906379347428524,0.870812204873043,1.012656402682317,1.310715983443731,0.9486930810749292,0.7878886064431838,1.000270533255005,1.513130703260725,882.014652014652,813.919413919414,739.3772893772893,748.2417582417582,827.6190476190476,0.395142,0.111389,0.914185,-21.062164,-5.794525,-26.894073,324761.904762,139406666.666667,82953699.633700,83.473816,1,1,1,1,1,30.000000
2025-11-11 13:39:15.886,0.4631760722970716,0.352048736349086,0.7220134734960422,1.066259471358325,0.4656005480455126,0.05465961677065042,0.7558273664784078,1.19751262259342,0.973143463737247,0.4496184561544905,0.854377458263419,1.290007658778566,0.9906379347428524,0.5776761315517852,0.9224008682016215,1.478768837874425,0.9486930810749292,0.6789665197299961,0.8243609786662284,1.207787321142566,957.3626373626374,786.9230769230769,786.5201465201466,803.8461538461539,702.3076923076924,0.403687,0.234192,0.895874,-8.874969,-4.710388,-23.021088,332014.652015,139537216.117216,83088278.388278,83.473816,1,1,1,1,1,30.000000
2025-11-11 13:39:16.811,,,,,,,,,,,,,,,,,,,,,,,,,,,,,,,,,,,,,,,,,,/muse/elements/blink
2025-11-11 13:39:16.886,0.4631760722970716,-0.04075917119576196,0.6690996333490664,1.083273643401383,0.4656005480455126,-0.08817413717833299,0.5336323216010674,0.8971040548476263,0.973143463737247,0.3993673624632231,0.7681695571050851,0.5050288422751711,0.9906379347428524,0.6876508881998841,0.9760636265882433,1.586379454909903,0.9486930810749292,0.546917031922456,0.9784851037531758,1.038158099986213,944.4688644688645,805.4578754578755,798.6080586080586,810.6959706959707,586.2637362637363,0.490601,0.157715,0.844666,-10.557251,-4.658051,-14.976044,327985.347985,139446959.706960,83090695.970696,83.473816,1,1,1,1,1,30.000000
2025-11-11 13:39:17.235,,,,,,,,,,,,,,,,,,,,,,,,,,,,,,,,,,,,,,,,,,/muse/elements/blink
2025-11-11 13:39:17.886,0.4631760722970716,-0.2370673307445892,0.7502323287216214,1.294796806845071,0.4656005480455126,0.04872753935360576,0.6871238398837595,1.363533172065033,0.973143463737247,0.4323021775235739,0.8560998104452453,0.9160203979255962,0.9906379347428524,0.8483372377023575,0.9075027670717228,1.404983338051995,0.9486930810749292,0.5658407084300471,0.9118808213630496,1.391388742162905,725.2747252747253,803.040293040293,790.1465201465202,732.9304029304029,714.3956043956044,0.402466,0.130615,0.883850,-9.944153,-5.495453,-24.090271,318315.018315,139427619.047619,83220439.560440,83.457024,1,1,1,1,1,30.000000
2025-11-11 13:39:18.886,0.4631760722970716,-0.03365037669306891,0.7131861903362781,1.070958007460004,0.4656005480455126,0.02346096007068718,0.6972917660865948,1.096284688335518,0.973143463737247,0.3687292291892652,0.8643238155837517,1.106142242936695,0.9906379347428524,0.8403487610769621,1.009198240641969,1.330753361170879,0.9486930810749292,0.6703501429858104,0.8098829653115915,1.521545213670954,873.956043956044,788.5347985347986,813.919413919414,814.3223443223443,846.1538461538462,0.382507,0.178284,0.928040,-11.095581,-2.878571,-20.755615,317509.157509,139421172.161172,83329230.769231,82.581902,1,1,1,1,1,30.000000
2025-11-11 13:39:18.978,,,,,,,,,,,,,,,,,,,,,,,,,,,,,,,,,,,,,,,,,,/muse/elements/blink
2025-11-11 13:39:19.886,0.4631760722970716,0.2014176528256706,0.6633345758838701,1.055840215723592,0.4656005480455126,0.2658055985698773,0.678963091493036,1.354306486559885,0.973143463737247,0.5836590474591048,0.7480374227902886,1.178274588231319,0.9906379347428524,0.805731768675033,1.106359766170473,1.50099327768296,0.9486930810749292,0.6147838152631313,0.8373607270240381,1.319745902302226,724.4688644688645,791.3553113553114,800.2197802197802,763.956043956044,779.2673992673992,0.348572,0.121033,0.925293,-11.147919,-11.312408,-27.335205,319120.879121,139391355.311355,83352600.732601,82.581902,1,1,1,1,1,30.000000
2025-11-11 13:39:20.892,0.4631760722970716,0.3617374641299293,0.7901689754428067,0.90970014532652,0.4656005480455126,0.1931469786306446,0.6863015503158912,1.261473962175664,0.973143463737247,0.5933671552283872,0.6573052589545217,1.186181879317508,0.9906379347428524,0.8088105689350995,1.097909260843793,1.440752518206045,0.9486930810749292,0.7592359586565983,0.7241467294528818,1.2813409605109,748.2417582417582,797.3992673992674,807.0695970695971,772.014652014652,671.2820512820513,0.388489,0.198425,0.925537,-7.304840,-5.996399,-20.905151,325567.765568,139656483.516484,83498461.538462,82.581902,1,1,1,1,1,30.000000
2025-11-11 13:39:21.895,0.4631760722970716,0.4297591192121659,0.4821384488456402,0.8847122043609779,0.4656005480455126,-0.00156012377121662,0.4556584159255657,1.357195278920741,0.973143463737247,0.5929314017934281,0.5620493408228935,1.297141667989504,0.9906379347428524,0.7832111917455246,0.9980713484904035,1.406718799132241,0.9486930810749292,0.6395579359983662,1.043085952152499,1.372922136695552,856.2271062271062,786.9230769230769,795.7875457875458,818.7545787545788,884.4322344322345,0.407776,0.127441,0.859985,-2.437439,-0.942078,-4.620667,334432.234432,139623443.223443,83418681.318681,84.804184,1,1,1,1,1,30.000000
2025-11-11 13:39:22.385,,,,,,,,,,,,,,,,,,,,,,,,,,,,,,,,,,,,,,,,,,/muse/elements/blink
2025-11-11 13:39:22.886,0.4631760722970716,0.3016251604619962,0.4783963235117433,1.166296119026669,0.4656005480455126,-0.1008345692157765,0.4081923576396593,1.310147919069059,0.973143463737247,0.3733183489355156,0.5472928558738988,1.198075961063288,0.9906379347428524,0.8746063645288165,1.085360873623152,1.453423711036607,0.9486930810749292,0.5660184407211923,0.9416362888082185,1.356745744578546,947.2893772893773,812.3076923076924,797.8021978021978,812.3076923076924,748.2417582417582,0.399414,0.103394,0.917664,-2.818756,1.308441,-8.792725,356190.476190,139641978.021978,83504908.424908,84.804184,1,1,1,1,1,30.000000
2025-11-11 13:39:23.223,,,,,,,,,,,,,,,,,,,,,,,,,,,,,,,,,,,,,,,,,,/muse/elements/blink
2025-11-11 13:39:23.886,0.4631760722970716,-0.03946451895190552,0.6200215666804966,1.291840491785231,0.4656005480455126,-0.1722859920232704,0.3008059550438489,1.227955064006641,0.973143463737247,0.3637849833505675,0.1443438532541569,1.479187944907209,0.9906379347428524,0.9354993631894949,1.14459486691479,1.432293765429701,0.9486930810749292,0.5447973630424271,0.6417408568600136,1.481124798289604,1031.501831501831,801.025641025641,824.7985347985348,755.8974358974359,696.2637362637363,0.351685,0.205139,1.102539,1.525269,4.134674,7.648773,386007.326007,139713699.633700,83555677.655678,84.804184,1,1,1,1,1,30.000000
2025-11-11 13:39:24.886,0.4631760722970716,0.2064281984525325,0.6200215666804966,1.310748997664871,0.4656005480455126,0.1060126037164593,0.3008059550438489,1.48803492978326,0.973143463737247,0.4501580150437395,0.1443438532541569,1.502476365514169,0.9906379347428524,0.9251854545758064,1.14459486691479,1.648456008304341,0.9486930810749292,0.4659782937310778,0.6417408568600136,1.481075470878517,629.3772893772893,803.8461538461539,840.1098901098901,783.6996336996338,874.3589743589744,0.366943,0.022766,0.929749,2.893524,-1.801910,10.960999,430329.670330,139510622.710623,83527472.527473,81.405243,1,1,1,1,1,30.000000
2025-11-11 13:39:24.974,,,,,,,,,,,,,,,,,,,,,,,,,,,,,,,,,,,,,,,,,,/muse/elements/blink
2025-11-11 13:39:25.762,,,,,,,,,,,,,,,,,,,,,,,,,,,,,,,,,,,,,,,,,,/muse/elements/jaw_clench
2025-11-11 13:39:25.886,0.4631760722970716,0.2845744081475945,0.3801103541815398,1.290796718879132,0.4656005480455126,0.1479734462744637,0.3929891987178908,1.49840509706475,0.973143463737247,0.3707183582965689,0.6963904091722065,1.369761184719727,0.9906379347428524,0.6815750321001526,1.159757353847219,1.65522730578772,0.9486930810749292,0.4545115687986476,1.160295938301973,1.44951668801924,743.8095238095239,800.2197802197802,836.4835164835165,758.3150183150184,821.978021978022,0.430359,0.065491,0.885254,9.301147,-4.321594,21.211700,583443.223443,139747545.787546,83598388.278388,84.377678,1,1,1,1,1,30.000000
2025-11-11 13:39:26.806,,,,,,,,,,,,,,,,,,,,,,,,,,,,,,,,,,,,,,,,,,/muse/elements/blink
2025-11-11 13:39:26.886,0.4631760722970716,0.08764711278288921,0.3205802047488367,1.259964516550117,0.4656005480455126,-0.01220101346905038,0.4335838209446886,1.416194091398168,0.973143463737247,0.3926268207857739,0.5809415392557293,1.341331843275363,0.9906379347428524,0.8437155418806025,1.158797594859976,1.592855408441048,0.9486930810749292,0.4389449560491837,1.180085040593522,1.431657966591585,839.7069597069598,809.0842490842491,826.8131868131868,774.4322344322345,656.7765567765568,0.423950,0.035828,0.908813,6.190796,7.259979,31.768951,672087.912088,139839413.919414,83583882.783883,85.719261,1,1,1,1,1,30.000000
2025-11-11 13:39:27.783,,,,,,,,,,,,,,,,,,,,,,,,,,,,,,,,,,,,,,,,,,/muse/elements/blink
2025-11-11 13:39:27.886,0.4631760722970716,0.1922044702490818,0.3205802047488367,1.259964516550117,0.4656005480455126,0.1412869075943881,0.4335838209446886,1.416194091398168,0.973143463737247,0.4653507844936396,0.5809415392557293,1.341331843275363,0.9906379347428524,0.8786271355349944,1.158797594859976,1.592855408441048,0.9486930810749292,0.7146953065938277,1.180085040593522,1.431657966591585,778.0586080586081,794.981684981685,818.7545787545788,807.8754578754579,737.7655677655678,0.363342,0.063110,0.918762,6.624451,-2.250519,13.002167,354578.754579,139916776.556777,83641904.761905,85.719261,1,2,1,1,2,30.000000
2025-11-11 13:39:28.209,,,,,,,,,,,,,,,,,,,,,,,,,,,,,,,,,,,,,,,,,,/muse/elements/blink
2025-11-11 13:39:28.886,0.4631760722970716,0.1706771445942695,0.3205802047488367,1.259964516550117,0.4656005480455126,0.09231788685452207,0.4335838209446886,1.416194091398168,0.973143463737247,0.5607091030942915,0.5809415392557293,1.341331843275363,0.9906379347428524,0.9315520201300788,1.158797594859976,1.592855408441048,0.9486930810749292,0.6884908303662447,1.180085040593522,1.431657966591585,667.6556776556777,807.4725274725275,831.2454212454213,777.2527472527473,718.8278388278388,0.340210,0.109375,0.953857,11.761017,2.295380,35.088654,322344.322344,140073919.413919,83620146.520147,84.810898,1,2,1,1,2,30.000000
2025-11-11 13:39:29.338,,,,,,,,,,,,,,,,,,,,,,,,,,,,,,,,,,,,,,,,,,/muse/elements/blink
2025-11-11 13:39:29.886,0.4631760722970716,0.3031848666827108,0.3205802047488367,0.9382603853389272,0.4656005480455126,0.08859465613578375,0.4335838209446886,1.229122429510645,0.973143463737247,0.6218678691163996,0.5809415392557293,1.48038503479373,0.9906379347428524,0.7461712232792849,1.158797594859976,1.6319269523503,0.9486930810749292,0.6396593546047007,1.180085040593522,1.560818227228466,660.4029304029305,796.5934065934066,800.2197802197802,797.8021978021978,704.7252747252747,0.364746,-0.026123,0.930298,6.751556,-8.613281,17.615356,326373.626374,139951428.571429,83463003.663004,84.091187,1,1,1,1,1,30.000000
2025-11-11 13:39:30.637,,,,,,,,,,,,,,,,,,,,,,,,,,,,,,,,,,,,,,,,,,/muse/elements/blink
2025-11-11 13:39:30.887,0.4631760722970716,0.4001381280203435,0.3205802047488367,1.215851713683374,0.4656005480455126,0.1916850140443332,0.4335838209446886,1.140836117779872,0.973143463737247,0.6049360866859833,0.5809415392557293,1.592275664934868,0.9906379347428524,0.801400043971933,1.158797594859976,1.574710324043838,0.9486930810749292,0.6083271292427309,1.180085040593522,1.492963228230669,871.941391941392,766.3736263736264,795.7875457875458,781.6849816849817,884.4322344322345,0.443787,0.101074,0.898682,10.998383,-12.022705,15.992889,331208.791209,140045714.285714,83505714.285714,84.456375,1,1,1,1,1,30.000000
2025-11-11 13:39:31.887,0.4631760722970716,0.3171323794532928,0.3205802047488367,1.391477345662324,0.4656005480455126,0.3623092759503546,0.4335838209446886,1.316503080203544,0.973143463737247,0.583911477965824,0.5809415392557293,1.556722917688669,0.9906379347428524,0.8098779989004111,1.158797594859976,1.479332893080071,0.9486930810749292,0.6930699795260339,1.180085040593522,1.373075875939907,866.7032967032967,814.3223443223443,760.7326007326008,814.3223443223443,857.8388278388279,0.441467,-0.011963,0.905090,7.738495,-7.379608,20.508881,339267.399267,140037655.677656,83450109.890110,84.445808,1,1,1,1,1,30.000000
2025-11-11 13:39:32.146,,,,,,,,,,,,,,,,,,,,,,,,,,,,,,,,,,,,,,,,,,/muse/elements/blink
2025-11-11 13:39:32.487,,,,,,,,,,,,,,,,,,,,,,,,,,,,,,,,,,,,,,,,,,/muse/elements/blink
2025-11-11 13:39:32.887,0.4631760722970716,0.6306124173395751,0.3205802047488367,1.391477345662324,0.4656005480455126,0.5525938395315689,0.4335838209446886,1.316503080203544,0.973143463737247,0.6489900165406183,0.5809415392557293,1.556722917688669,0.9906379347428524,0.8005315351101158,1.158797594859976,1.479332893080071,0.9486930810749292,0.6370520443165707,1.180085040593522,1.373075875939907,836.0805860805862,807.4725274725275,794.981684981685,829.2307692307693,733.3333333333334,0.381409,0.089417,0.903381,6.527252,3.828125,13.032074,354578.754579,139881318.681319,83379194.139194,84.445808,1,1,1,1,1,30.000000
2025-11-11 13:39:32.975,,,,,,,,,,,,,,,,,,,,,,,,,,,,,,,,,,,,,,,,,,/muse/elements/blink
2025-11-11 13:39:33.887,0.4631760722970716,0.5512632936982299,0.3205802047488367,1.391477345662324,0.4656005480455126,0.4451558206783249,0.4335838209446886,1.316503080203544,0.973143463737247,0.6067318939722747,0.5809415392557293,1.556722917688669,0.9906379347428524,0.8145637693501296,1.158797594859976,1.479332893080071,0.9486930810749292,0.6208131480441179,1.180085040593522,1.373075875939907,763.956043956044,788.1318681318681,784.9084249084249,788.5347985347986,683.7728937728938,0.357544,0.068726,0.870117,1.338348,-8.979645,3.304749,346520.146520,139758827.838828,83253479.853480,84.702698,1,2,1,1,2,30.000000
2025-11-11 13:39:33.890,,,,,,,,,,,,,,,,,,,,,,,,,,,,,,,,,,,,,,,,,,/muse/elements/blink
2025-11-11 13:39:34.887,0.4631760722970716,0.1664174386248526,0.3205802047488367,1.391477345662324,0.4656005480455126,0.1436642800228352,0.4335838209446886,1.316503080203544,0.973143463737247,0.3521751776713428,0.5809415392557293,1.556722917688669,0.9906379347428524,0.8514061476097198,1.158797594859976,1.479332893080071,0.9486930810749292,0.6306419359774743,1.180085040593522,1.373075875939907,834.4688644688645,785.7142857142858,810.2930402930403,802.6373626373627,732.5274725274726,0.321228,0.084045,0.950623,1.263580,-0.134583,-3.087921,330402.930403,139774139.194139,83160805.860806,83.212196,1,2,1,1,2,30.000000
2025-11-11 13:39:35.613,,,,,,,,,,,,,,,,,,,,,,,,,,,,,,,,,,,,,,,,,,/muse/elements/blink
2025-11-11 13:39:35.887,0.4631760722970716,0.1177160618103184,0.3205802047488367,1.316105701217428,0.4656005480455126,-0.1412567201583294,0.4335838209446886,1.006332828675823,0.973143463737247,0.3989259720836386,0.5809415392557293,1.268464448460116,0.9906379347428524,0.7004240573717525,1.158797594859976,1.392547890310821,0.9486930810749292,0.7036788562613556,1.180085040593522,1.22927364937435,954.1391941391942,788.9377289377289,811.5018315018315,795.7875457875458,767.985347985348,0.387939,0.149231,0.870605,-2.056122,-6.400146,-6.347809,323150.183150,139733040.293040,83223663.003663,82.695503,1,1,1,1,1,30.000000
2025-11-11 13:39:36.637,,,,,,,,,,,,,,,,,,,,,,,,,,,,,,,,,,,,,,,,,,/muse/elements/blink
2025-11-11 13:39:36.888,0.4631760722970716,0.2128227301753213,0.3205802047488367,1.375115208412326,0.4656005480455126,-0.1082775928492853,0.4335838209446886,1.087425396164074,0.973143463737247,0.4972157260909721,0.5809415392557293,1.245225715053677,0.9906379347428524,0.7382561306663893,1.158797594859976,1.398938635237802,0.9486930810749292,0.7820037110775289,1.180085040593522,1.156059302788314,647.1062271062272,796.1904761904763,753.8827838827839,763.956043956044,1516.227106227106,0.451721,0.093872,0.932373,-5.353394,-14.303131,-14.033966,319926.739927,139810402.930403,83184981.684982,82.988853,1,1,1,1,1,30.000000
2025-11-11 13:39:37.157,,,,,,,,,,,,,,,,,,,,,,,,,,,,,,,,,,,,,,,,,,/muse/elements/blink
2025-11-11 13:39:37.890,0.4631760722970716,0.2339829014509934,0.3205802047488367,1.26454465229723,0.4656005480455126,-0.1512448937817908,0.4335838209446886,1.377935236793511,0.973143463737247,0.4069434351900404,0.5809415392557293,1.40426743345346,0.9906379347428524,0.7773228835178442,1.158797594859976,1.394641338498216,0.9486930810749292,0.693133076718615,1.180085040593522,1.135589818026386,626.959706959707,798.2051282051282,783.6996336996338,796.1904761904763,776.4468864468864,0.422363,0.132568,0.871521,-13.196564,1.024323,-17.697601,319120.879121,139861978.021978,83276043.956044,83.316002,1,1,1,1,1,30.000000
2025-11-11 13:39:38.886,0.4631760722970716,0.1111738003348179,0.3205802047488367,0.9941058922834604,0.4656005480455126,-0.109140953319889,0.4335838209446886,1.335057738521157,0.973143463737247,0.4782004771301381,0.5809415392557293,1.326478842433106,0.9906379347428524,0.7717707414849168,1.158797594859976,1.246502240546155,0.9486930810749292,0.6915761022825454,1.180085040593522,1.132263617578316,678.5347985347986,797.8021978021978,787.7289377289378,772.8205128205128,784.1025641025641,0.435181,0.125488,0.916870,-15.080719,-4.889832,-24.479065,329597.069597,139741904.761905,83339706.959707,86.409851,1,1,1,1,1,30.000000
2025-11-11 13:39:39.893,0.4631760722970716,-0.04119368475161761,0.3205802047488367,0.961731968103914,0.4656005480455126,-0.03931473448054103,0.4335838209446886,1.24757169545417,0.973143463737247,0.6361751677497028,0.5809415392557293,1.101548923940243,0.9906379347428524,0.8136844672860126,1.158797594859976,1.128437220371171,0.9486930810749292,0.6992554782060301,1.180085040593522,1.068776369544821,904.981684981685,787.7289377289378,797.8021978021978,826.007326007326,793.7728937728938,0.382019,0.075928,0.935303,-12.516174,-6.400146,-27.948303,332014.652015,139763663.003663,83343736.263736,87.228249,1,1,1,1,1,30.000000
2025-11-11 13:39:40.892,0.4631760722970716,0.1365647533680612,0.7935413542513745,1.066165815421058,0.4656005480455126,0.1715613568677384,0.4871363079280678,1.143602450177139,0.973143463737247,0.5837117916473257,0.6564644608019556,1.316710273489381,0.9906379347428524,0.6221386269747413,0.9106131559031279,1.240168505574853,0.9486930810749292,0.5397231652777518,1.011201665848124,1.301293233772467,733.7362637362637,791.7582417582418,786.1172161172161,763.1501831501831,893.6996336996338,0.401978,0.189819,0.873230,-9.517975,-2.624359,-19.798584,326373.626374,139855531.135531,83422710.622711,85.668381,1,1,1,1,1,30.000000
2025-11-11 13:39:41.893,0.4631760722970716,0.1299986493450892,0.7935413542513745,1.105271692322626,0.4656005480455126,0.005477012072628643,0.4871363079280678,1.114978128895074,0.973143463737247,0.589981584590607,0.6564644608019556,1.311468119087701,0.9906379347428524,0.8491894341500611,0.9106131559031279,1.371368706627681,0.9486930810749292,0.546566430239933,1.011201665848124,1.445127196835406,942.8571428571429,793.3699633699634,792.967032967033,816.7399267399268,693.8461538461538,0.369202,0.144531,0.900391,-9.555359,-8.187103,-27.043610,314285.714286,139783003.663004,83422710.622711,86.116646,1,1,1,1,1,30.000000
2025-11-11 13:39:42.820,,,,,,,,,,,,,,,,,,,,,,,,,,,,,,,,,,,,,,,,,,/muse/elements/blink
2025-11-11 13:39:42.895,0.4631760722970716,0.4638322562258222,0.7935413542513745,1.112404969619869,0.4656005480455126,0.2507495395048581,0.4871363079280678,0.8163200559186627,0.973143463737247,0.606197374725995,0.6564644608019556,1.11064942570324,0.9906379347428524,0.7817757330537585,0.9106131559031279,1.340195241138979,0.9486930810749292,0.624289103558338,1.011201665848124,1.479115194560747,995.2380952380953,805.0549450549451,804.2490842490843,855.8241758241759,944.0659340659341,0.400269,0.189209,0.866211,-10.273132,-8.374023,-13.854523,315091.575092,139654871.794872,83414652.014652,102.736992,1,1,1,1,1,30.000000
2025-11-11 13:39:43.716,,,,,,,,,,,,,,,,,,,,,,,,,,,,,,,,,,,,,,,,,,/muse/elements/blink
2025-11-11 13:39:43.895,0.4631760722970716,0.2746729294128263,0.5646448216357483,0.831679059774921,0.4656005480455126,0.1318152652986003,0.6976532269577096,0.4436724849294067,0.973143463737247,0.4125310862163195,0.8113085873273552,1.085766960811371,0.9906379347428524,0.6465786791444791,0.9985542081456368,1.250234958065426,0.9486930810749292,0.4917843213003009,0.8260226198270612,1.48039907309738,893.2967032967033,790.5494505494506,843.3333333333334,823.1868131868132,659.5970695970697,0.431335,0.129578,0.858032,-10.998383,5.555267,-21.607971,318315.018315,139673406.593407,83450109.890110,130.501724,1,1,1,1,1,30.000000
2025-11-11 13:39:43.971,,,,,,,,,,,,,,,,,,,,,,,,,,,,,,,,,,,,,,,,,,/muse/elements/blink
2025-11-11 13:39:44.887,0.4631760722970716,-0.07119053163237797,0.7799547855294935,0.831679059774921,0.4656005480455126,0.07350205556316361,0.5745038300296387,0.4436724849294067,0.973143463737247,0.5195453913146706,0.9481265405762969,1.085766960811371,0.9906379347428524,0.7533136406193121,1.011560994048731,1.250234958065426,0.9486930810749292,0.6047398832744023,0.8361541008927919,1.48039907309738,820.3663003663004,794.5787545787546,789.7435897435897,819.1575091575091,832.4542124542124,0.368347,0.111511,0.997070,-13.159180,-6.856232,-28.284760,324761.904762,139363150.183150,83433186.813187,132.227966,1,1,1,1,1,30.000000
2025-11-11 13:39:45.887,1.690823265683548,0.1328814012498369,0.8386300420178363,0.831679059774921,1.299121074724312,0.01996813140600638,0.5904429440318726,0.4436724849294067,1.601734466676459,0.7169007596092194,1.022953023836778,1.085766960811371,1.586249206371776,0.6416252422191051,1.028554168165831,1.250234958065426,1.093030568335464,0.4598380623199007,0.776061958091574,1.48039907309738,788.1318681318681,776.8498168498169,796.1904761904763,773.2234432234433,784.9084249084249,0.369019,0.162720,0.911743,-3.828125,0.381317,-9.660034,335238.095238,139553333.333333,83541978.021978,117.967659,1,1,1,1,1,30.000000
2025-11-11 13:39:46.887,1.690823265683548,0.2315691443426934,0.8764138996985998,1.331264676397529,1.299121074724312,-0.09486228353108052,0.8295471036477042,1.401248889591373,1.601734466676459,0.666213545391157,0.7787297931343974,1.27806992033592,1.586249206371776,0.7516341357244207,1.091622800540312,1.493249121583175,1.093030568335464,0.6484819742414609,0.8330471394401746,1.289769236807632,963.8095238095239,793.7728937728938,830.4395604395604,788.9377289377289,680.5494505494506,0.323730,0.060303,0.926514,-1.293488,-5.510406,5.465546,347326.007326,139573479.853480,83691868.131868,112.550865,1,1,1,1,1,30.000000
2025-11-11 13:39:46.999,,,,,,,,,,,,,,,,,,,,,,,,,,,,,,,,,,,,,,,,,,/muse/elements/blink
2025-11-11 13:39:47.887,1.690823265683548,0.0774645802833439,0.8764138996985998,1.345449177710673,1.299121074724312,0.06638562814201529,0.8295471036477042,1.301162563565093,1.601734466676459,0.5410483789594961,0.7787297931343974,1.311445775387908,1.586249206371776,0.793394199367924,1.091622800540312,1.413900507584761,1.093030568335464,0.5857267502500907,0.8330471394401746,1.255887949389855,987.1794871794872,797.8021978021978,799.4139194139194,786.5201465201466,833.6630036630037,0.350830,0.129639,0.915527,3.409424,-0.456085,4.246826,374725.274725,139685494.505495,83852234.432234,112.550865,1,1,1,1,1,30.000000
2025-11-11 13:39:47.892,,,,,,,,,,,,,,,,,,,,,,,,,,,,,,,,,,,,,,,,,,/muse/elements/blink
2025-11-11 13:39:48.512,,,,,,,,,,,,,,,,,,,,,,,,,,,,,,,,,,,,,,,,,,/muse/elements/blink
2025-11-11 13:39:48.887,1.690823265683548,-0.08472130729783275,0.8764138996985998,1.183539400715641,1.299121074724312,0.08357755396258494,0.8295471036477042,1.238324898852695,1.601734466676459,0.5192807042282225,0.7787297931343974,1.12215321730033,1.586249206371776,0.8079011977056183,1.091622800540312,1.457974257069143,1.093030568335464,0.4091417183512687,0.8330471394401746,1.210003925301804,616.080586080586,799.4139194139194,784.1025641025641,803.040293040293,835.2747252747253,0.434937,0.128784,0.892639,5.099182,0.964508,14.691925,431135.531136,139873260.073260,83924761.904762,106.184128,1,1,1,1,1,30.000000
2025-11-11 13:39:49.888,1.69492042101108,0.09506592717792338,0.8764138996985998,1.321679548987635,1.296084594407226,0.1114442882772997,0.8295471036477042,1.120845303736263,1.081300352433104,0.36602015145313,0.7787297931343974,1.457318543129827,1.327317992052941,0.6263633884162266,1.091622800540312,1.372407542059071,1.177850979070434,0.5414792442607658,0.8330471394401746,1.178749029024648,729.3040293040293,812.3076923076924,792.1611721611722,682.967032967033,584.6520146520147,0.364563,0.018494,0.952942,4.673004,-1.981354,2.444916,527032.967033,139582344.322344,83880439.560440,96.873711,1,1,1,1,1,30.000000
2025-11-11 13:39:50.152,,,,,,,,,,,,,,,,,,,,,,,,,,,,,,,,,,,,,,,,,,/muse/elements/blink
2025-11-11 13:39:50.152,,,,,,,,,,,,,,,,,,,,,,,,,,,,,,,,,,,,,,,,,,/muse/elements/jaw_clench
2025-11-11 13:39:50.888,1.727409716613433,0.04106013602643689,0.8764138996985998,1.451491060973871,1.35649042149224,0.1115674511789884,0.8295471036477042,1.18832812966565,1.022458353482906,0.3865990469776905,0.7787297931343974,1.361086355927582,1.268006997121036,0.5992384330881059,1.091622800540312,1.43439807216433,1.188118713833534,0.6965393849671376,0.8330471394401746,1.252715984032931,912.2344322344322,807.0695970695971,803.040293040293,833.2600732600733,835.2747252747253,0.384033,0.076050,0.895447,14.774170,-0.299072,34.969025,660805.860806,139623443.223443,83707985.347985,94.830376,1,1,1,1,1,30.000000
2025-11-11 13:39:51.349,,,,,,,,,,,,,,,,,,,,,,,,,,,,,,,,,,,,,,,,,,/muse/elements/jaw_clench
2025-11-11 13:39:51.456,,,,,,,,,,,,,,,,,,,,,,,,,,,,,,,,,,,,,,,,,,/muse/elements/blink
2025-11-11 13:39:51.894,1.738015507763203,0.3157610562449884,0.8764138996985998,0.7612215472756193,1.352374274694212,0.2069189756129752,0.8295471036477042,1.430508958488274,0.9356763509536348,0.07987922301013493,0.7787297931343974,1.757333840845194,1.265350780687974,0.8222401243864913,1.091622800540312,1.901314270614978,1.181473460279497,0.669561913047273,0.8330471394401746,1.493549870867991,671.2820512820513,802.6373626373627,812.7106227106227,773.6263736263736,835.6776556776557,0.394958,0.012939,0.938721,4.239349,-11.589050,17.996674,448864.468864,139633113.553114,83624175.824176,88.014900,1,1,1,1,1,30.000000
2025-11-11 13:39:52.480,,,,,,,,,,,,,,,,,,,,,,,,,,,,,,,,,,,,,,,,,,/muse/elements/jaw_clench
2025-11-11 13:39:52.776,,,,,,,,,,,,,,,,,,,,,,,,,,,,,,,,,,,,,,,,,,/muse/elements/blink
2025-11-11 13:39:52.887,1.738015507763203,0.3216278259208095,0.8764138996985998,1.053375257565376,1.352374274694212,0.00763505423655487,0.8295471036477042,1.396911829849595,0.9356763509536348,0.2274755173061566,0.7787297931343974,1.763306638322345,1.265350780687974,0.8720070122859221,1.091622800540312,1.874159879749446,1.181473460279497,0.8082652666391481,0.8330471394401746,1.52099569618474,593.919413919414,824.7985347985348,806.2637362637363,832.4542124542124,578.2051282051282,0.450439,0.125549,0.891907,0.186920,-4.830017,16.254578,319120.879121,139598461.538462,83578241.758242,86.485512,1,1,1,1,1,30.000000
2025-11-11 13:39:53.270,,,,,,,,,,,,,,,,,,,,,,,,,,,,,,,,,,,,,,,,,,/muse/elements/jaw_clench
2025-11-11 13:39:53.804,,,,,,,,,,,,,,,,,,,,,,,,,,,,,,,,,,,,,,,,,,/muse/elements/jaw_clench
2025-11-11 13:39:53.887,1.738015507763203,0.4288024730878701,0.8764138996985998,1.057263113690669,1.352374274694212,0.2814287811558059,0.8295471036477042,0.8200132271202123,0.9356763509536348,0.3381259474368475,0.7787297931343974,1.499572839191494,1.265350780687974,0.8720415707300875,1.091622800540312,1.489288169974158,1.181473460279497,0.7610528619602717,0.8330471394401746,1.483123358247534,743.0036630036631,813.919413919414,786.5201465201466,836.4835164835165,962.6007326007326,0.398071,0.073120,0.882751,13.099365,4.231873,35.170898,323956.043956,139666153.846154,83494432.234432,86.211670,1,1,1,1,1,30.000000
2025-11-11 13:39:53.983,,,,,,,,,,,,,,,,,,,,,,,,,,,,,,,,,,,,,,,,,,/muse/elements/jaw_clench
2025-11-11 13:39:54.217,,,,,,,,,,,,,,,,,,,,,,,,,,,,,,,,,,,,,,,,,,/muse/elements/blink
2025-11-11 13:39:54.887,1.738015507763203,0.3251436321407234,0.8764138996985998,0.9876324238056162,1.352374274694212,0.3014767486825869,0.8295471036477042,0.8683037459800763,0.9356763509536348,0.7114185714337565,0.7787297931343974,1.519543524876677,1.265350780687974,0.7903874809098443,1.091622800540312,1.52241678502885,1.181473460279497,0.6349202864946386,0.8330471394401746,1.5441370831119,834.4688644688645,799.8168498168499,789.7435897435897,819.96336996337,743.4065934065934,0.292114,0.054260,1.232422,6.923523,5.816956,9.884338,327985.347985,139548498.168498,83386446.886447,86.211670,1,1,1,1,1,30.000000
2025-11-11 13:39:55.197,,,,,,,,,,,,,,,,,,,,,,,,,,,,,,,,,,,,,,,,,,/muse/elements/blink
2025-11-11 13:39:55.432,,,,,,,,,,,,,,,,,,,,,,,,,,,,,,,,,,,,,,,,,,/muse/elements/jaw_clench
2025-11-11 13:39:55.623,,,,,,,,,,,,,,,,,,,,,,,,,,,,,,,,,,,,,,,,,,/muse/elements/jaw_clench
2025-11-11 13:39:55.887,1.738015507763203,0.1955341631928838,0.8764138996985998,1.16811082889004,1.352374274694212,-0.08088288812349111,0.8295471036477042,1.046610550037096,0.9356763509536348,0.5995978617632695,0.7787297931343974,1.514019851306685,1.265350780687974,0.8379802950619407,1.091622800540312,1.568589237527346,1.181473460279497,0.7690855997556095,0.8330471394401746,1.620067355117023,809.0842490842491,807.4725274725275,832.4542124542124,838.901098901099,638.2417582417582,0.396606,0.169861,0.934875,7.596436,8.097382,23.477173,331208.791209,139637948.717949,83397728.937729,86.223602,1,1,1,1,1,30.000000
2025-11-11 13:39:56.330,,,,,,,,,,,,,,,,,,,,,,,,,,,,,,,,,,,,,,,,,,/muse/elements/jaw_clench
2025-11-11 13:39:56.895,1.738015507763203,0.710366744289378,0.8764138996985998,1.16811082889004,1.352374274694212,0.4153155630946099,0.8295471036477042,1.046610550037096,0.9356763509536348,0.02503556941188965,0.7787297931343974,1.514019851306685,1.265350780687974,0.8873097406541046,1.091622800540312,1.568589237527346,1.181473460279497,0.7735194660004694,0.8330471394401746,1.620067355117023,790.5494505494506,818.7545787545788,848.974358974359,800.2197802197802,569.3406593406594,0.365906,0.033813,0.916504,5.869293,-0.964508,23.895874,349743.589744,139560586.080586,83400146.520147,86.223602,1,1,1,1,1,30.000000
2025-11-11 13:39:57.721,,,,,,,,,,,,,,,,,,,,,,,,,,,,,,,,,,,,,,,,,,/muse/elements/blink
2025-11-11 13:39:57.887,1.738015507763203,0.8623807830014432,0.8764138996985998,0.9875830880555559,1.352374274694212,0.5602211365389376,0.8295471036477042,1.43988167492321,0.9356763509536348,0.3033317964196168,0.7787297931343974,1.482752727651561,1.265350780687974,0.8267953957471886,1.091622800540312,1.668156688692332,1.181473460279497,0.8732091064636226,0.8330471394401746,1.481570923512735,818.3516483516484,794.1758241758242,773.2234432234433,797.8021978021978,798.6080586080586,0.371643,0.113403,0.912354,5.659943,-4.620667,9.540405,348937.728938,139355897.435897,83226080.586081,86.217819,1,1,1,1,1,30.000000
2025-11-11 13:39:58.887,1.738015507763203,0.6107723253767169,0.8764138996985998,0.9200478173108603,1.352374274694212,0.3929636273700751,0.8295471036477042,1.265302140934104,0.9356763509536348,0.4063351640005448,0.7787297931343974,1.51302906753719,1.265350780687974,0.82884989701599,1.091622800540312,1.46052843762732,1.181473460279497,0.7635672227940373,0.8330471394401746,1.132177690782279,880,794.5787545787546,796.1904761904763,781.6849816849817,665.2380952380953,0.368347,0.062256,0.919128,2.257996,0.927124,-1.166382,341684.981685,139499340.659341,83255897.435897,85.566750,1,1,1,1,1,30.000000
2025-11-11 13:39:59.505,,,,,,,,,,,,,,,,,,,,,,,,,,,,,,,,,,,,,,,,,,/muse/elements/blink
2025-11-11 13:39:59.887,1.738015507763203,0.1904384423317186,0.8764138996985998,1.12205309385409,1.352374274694212,-0.1133601748261222,0.8295471036477042,1.22877281994301,0.9356763509536348,0.2961927694785962,0.7787297931343974,1.391589321629342,1.265350780687974,0.8111185825760046,1.091622800540312,1.416027991945124,1.181473460279497,0.5013294174702906,0.8330471394401746,1.118768668428745,745.8241758241759,819.1575091575091,755.0915750915751,788.9377289377289,1059.70695970696,0.394836,0.156494,0.911987,-5.921631,-8.239441,-14.243317,325567.765568,139427619.047619,83259120.879121,107.295586,1,1,1,1,1,30.000000
2025-11-11 13:40:00.887,1.400340838341038,0.09428748775404719,0.8764138996985998,1.318999619454182,1.358328124715711,-0.06654571211588103,0.8295471036477042,1.309705246278338,1.382847668266153,0.6259844063231512,0.7787297931343974,1.327505319782498,1.457317641313423,0.7508171814702973,1.091622800540312,1.422171559909917,1.14431849166535,0.4854823790665837,0.8330471394401746,1.183733375475868,748.6446886446887,803.4432234432235,792.1611721611722,791.3553113553114,834.4688644688645,0.370728,0.138733,0.883789,-5.861816,3.394470,-6.160889,323150.183150,139457435.897436,83254285.714286,97.587273,1,1,1,1,1,30.000000
2025-11-11 13:40:01.888,1.135072756097985,0.1102380455530892,0.8764138996985998,0.8212694885214131,1.391513037309072,-0.07826095958897943,0.8295471036477042,0.9181097164986508,1.348344215111352,0.7051086078035836,0.7787297931343974,0.999143398828179,1.366377701663472,0.7099822676970382,1.091622800540312,1.475319184852059,1.178409378995382,0.5393500132161932,0.8330471394401746,1.283709189149037,851.7948717948718,804.6520146520147,760.7326007326008,782.0879120879121,639.8534798534798,0.339905,0.069946,0.934204,-11.678772,-2.078552,-25.772552,320732.600733,139459853.479853,83307472.527473,90.964142,1,1,1,1,1,30.000000
2025-11-11 13:40:02.888,1.135072756097985,0.2079643204514231,0.8764138996985998,1.177285241627102,1.391513037309072,-0.1413112165169136,0.8295471036477042,1.010548672613112,1.348344215111352,0.4522654335046238,0.7787297931343974,1.15001869474333,1.366377701663472,0.6317013888383295,1.091622800540312,1.49569138485871,1.178409378995382,0.5419800643959137,0.8330471394401746,1.197568652905159,975.8974358974359,795.7875457875458,794.981684981685,807.4725274725275,1000.07326007326,0.391296,0.192627,0.892273,-8.448792,-10.714264,-15.439606,323150.183150,139256776.556777,83234945.054945,102.148766,1,1,1,1,1,30.000000
2025-11-11 13:40:03.887,1.135072756097985,0.3579622380827021,0.8764138996985998,1.192484627450076,1.391513037309072,-0.1242274397372984,0.8295471036477042,1.008529555082275,1.348344215111352,0.3650896723769013,0.7787297931343974,1.181071603276347,1.366377701663472,0.5010942988226288,1.091622800540312,1.428285707084105,1.178409378995382,0.417013685245566,0.8330471394401746,1.049238361204573,684.1758241758242,802.6373626373627,818.3516483516484,794.981684981685,1150.3663003663,0.377930,0.164185,0.916748,-10.048828,-4.613190,-12.718048,330402.930403,139288205.128205,83339706.959707,117.556702,1,1,1,1,1,30.000000
2025-11-11 13:40:04.236,,,,,,,,,,,,,,,,,,,,,,,,,,,,,,,,,,,,,,,,,,/muse/elements/blink
2025-11-11 13:40:04.888,1.135072756097985,0.3754141116901079,0.8764138996985998,1.06473911094814,1.391513037309072,0.1913892613740751,0.8295471036477042,1.308913770181091,1.348344215111352,0.3931213520696707,0.7787297931343974,1.462775569051234,1.366377701663472,0.5744711448728202,1.091622800540312,1.463106674259084,1.178409378995382,0.2917586680844243,0.8330471394401746,1.159427929307971,783.2967032967033,801.8315018315019,765.5677655677656,756.7032967032967,729.3040293040293,0.319153,0.195984,0.872131,-10.489960,-4.336548,-30.662384,333626.373626,139380879.120879,83468644.688645,103.197479,1,1,1,1,1,30.000000
2025-11-11 13:40:05.811,,,,,,,,,,,,,,,,,,,,,,,,,,,,,,,,,,,,,,,,,,/muse/elements/blink
2025-11-11 13:40:05.888,1.135072756097985,0.2139591666466247,0.8764138996985998,1.002155257589379,1.391513037309072,0.03793683752039428,0.8295471036477042,1.158542003560648,1.348344215111352,0.6576926691770385,0.7787297931343974,1.436453215859423,1.366377701663472,0.617558744914512,1.091622800540312,1.411419801988987,1.178409378995382,0.5743668849898238,0.8330471394401746,1.036756783943681,837.6923076923077,798.6080586080586,814.3223443223443,820.7692307692308,1272.454212454212,0.357361,0.146973,0.859680,-2.781372,-5.682373,-12.501221,326373.626374,139164102.564103,83449304.029304,95.145790,1,1,1,1,1,30.000000
2025-11-11 13:40:06.890,1.135072756097985,0.1065952935139943,0.8764138996985998,1.025747191971204,1.391513037309072,0.3055673975013256,0.8295471036477042,0.9931096438941022,1.348344215111352,0.9674305449782693,0.7787297931343974,1.228707883238554,1.366377701663472,0.5456690749024213,1.091622800540312,1.346049590915478,1.178409378995382,0.5185123989359453,0.8330471394401746,1.101801753385211,843.3333333333334,800.6227106227107,827.6190476190476,800.2197802197802,827.2161172161173,0.399658,0.180420,0.904602,-13.181610,-3.102875,-26.961365,315897.435897,139142344.322344,83399340.659341,95.145790,1,1,1,1,1,30.000000
2025-11-11 13:40:07.888,1.135072756097985,0.1264776653427053,0.8764138996985998,0.9589690981045415,1.391513037309072,0.2744982090457599,0.8295471036477042,0.9405585596108185,1.348344215111352,0.7904563891879152,0.7787297931343974,1.24142366664734,1.366377701663472,0.6590646690482568,1.091622800540312,1.411073545637234,1.178409378995382,0.4082579017353616,0.8330471394401746,1.515442272080827,691.8315018315019,802.2344322344322,809.4871794871796,765.9706959706959,560.4761904761905,0.379089,0.220032,0.976807,-11.342316,-0.418701,-18.609772,315897.435897,139143150.183150,83393699.633700,90.327538,1,1,1,1,1,30.000000
2025-11-11 13:40:08.428,,,,,,,,,,,,,,,,,,,,,,,,,,,,,,,,,,,,,,,,,,/muse/elements/blink
2025-11-11 13:40:08.888,1.135072756097985,0.3077811923631345,0.9323026086921165,0.7520327617466037,1.391513037309072,0.3724288554148096,0.4385759362734737,0.8056738803851697,1.348344215111352,0.7890951330124317,0.7069362249369318,0.8786807118742812,1.366377701663472,0.709300736983965,0.9742464746341388,1.410465507223651,1.178409378995382,0.4832420605379715,0.9665732113560223,1.599719554351213,710.3663003663004,805.4578754578755,814.3223443223443,801.4285714285714,936.4102564102565,0.281738,0.110657,0.909363,-8.560944,-3.087921,-28.957672,318315.018315,139240659.340659,83404175.824176,89.440323,1,1,1,1,1,30.000000
2025-11-11 13:40:09.888,1.135072756097985,0.1498343003273317,0.6767695698670492,0.7520327617466037,1.391513037309072,0.08486287824235259,0.4723049455247327,0.8056738803851697,1.348344215111352,0.593483213164684,0.8624563967122931,0.8786807118742812,1.366377701663472,0.6190445449066289,1.017222595816723,1.410465507223651,1.178409378995382,0.6164423621426024,0.9054005573534105,1.599719554351213,888.0586080586081,800.6227106227107,791.7582417582418,783.2967032967033,954.9450549450549,0.323364,0.172424,0.916687,-6.235657,-3.454285,-11.559143,324761.904762,139440512.820513,83565347.985348,89.440323,1,1,1,1,1,30.000000
2025-11-11 13:40:10.434,,,,,,,,,,,,,,,,,,,,,,,,,,,,,,,,,,,,,,,,,,/muse/elements/blink
2025-11-11 13:40:10.887,1.135072756097985,0.2973562542447533,0.8790611230063323,0.7972650673317316,1.391513037309072,0.2640810755264983,0.6109430187880348,0.8489072882088267,1.348344215111352,0.6030722533849665,0.8968676768145625,0.826974759727352,1.366377701663472,0.7260823802615828,0.9988931821674057,1.539159127390826,1.178409378995382,0.6147632485587532,0.9008565595881649,1.523683650008634,888.4615384615385,790.5494505494506,811.0989010989011,792.5641025641025,597.5457875457876,0.351135,0.072632,0.919373,-1.054230,-2.691650,-0.927124,332014.652015,139459047.619048,83653992.673993,89.440323,1,1,1,1,1,30.000000
2025-11-11 13:40:11.267,,,,,,,,,,,,,,,,,,,,,,,,,,,,,,,,,,,,,,,,,,/muse/elements/jaw_clench
2025-11-11 13:40:11.893,1.135072756097985,0.1584190130283279,0.9350462484488379,0.8394402372346066,1.391513037309072,0.1777146297985274,0.5354079271302274,0.95382501379067,1.348344215111352,0.5843095378625165,0.7815046622610302,1.155605424658425,1.366377701663472,0.7783919316965657,0.9936607131511677,1.533966517022705,1.178409378995382,0.5968872048118945,0.8580315585392724,1.261114593274391,706.3369963369963,814.7252747252747,800.6227106227107,857.032967032967,591.0989010989011,0.409302,0.103516,0.918884,0.478516,-6.863708,-11.858215,343296.703297,139637142.857143,83799047.619048,89.440323,1,1,1,1,1,30.000000
2025-11-11 13:40:12.694,,,,,,,,,,,,,,,,,,,,,,,,,,,,,,,,,,,,,,,,,,/muse/elements/blink
2025-11-11 13:40:12.887,1.135072756097985,-0.449593201353809,0.9350462484488379,0.7403756276397864,1.391513037309072,-0.06200952721335328,0.5354079271302274,0.8313330730855334,1.348344215111352,0.2385447272602373,0.7815046622610302,1.202308541905944,1.366377701663472,0.7168792052785397,0.9936607131511677,1.504046422757988,1.178409378995382,0.4047389665061902,0.8580315585392724,1.3455454784826,767.985347985348,796.1904761904763,769.1941391941392,795.3846153846154,1185.421245421245,0.421570,0.127930,0.902344,-3.798218,-0.500946,-0.411224,359413.919414,139606520.146520,83725714.285714,88.600159,1,1,1,1,1,30.000000
2025-11-11 13:40:12.993,,,,,,,,,,,,,,,,,,,,,,,,,,,,,,,,,,,,,,,,,,/muse/elements/blink
2025-11-11 13:40:13.887,1.135072756097985,-0.3676535289519977,0.9350462484488379,0.5838526794897206,1.391513037309072,-0.01274707861861978,0.5354079271302274,0.6297984351047824,1.348344215111352,0.16912325649702,0.7815046622610302,0.8767695948686578,1.366377701663472,0.7295719643613983,0.9936607131511677,1.453364259132796,1.178409378995382,0.1926027130843687,0.8580315585392724,1.380565123966176,656.3736263736264,815.5311355311355,818.3516483516484,784.9084249084249,704.3223443223443,0.342102,0.053101,0.947510,3.170166,1.248627,0.074768,388424.908425,139515457.875458,83734578.754579,85.624153,1,1,1,1,1,30.000000
2025-11-11 13:40:14.608,,,,,,,,,,,,,,,,,,,,,,,,,,,,,,,,,,,,,,,,,,/muse/elements/blink
2025-11-11 13:40:14.896,1.135072756097985,0.3844150908219074,0.9350462484488379,1.179509484610368,1.391513037309072,0.1551736976461764,0.5354079271302274,1.339288749176089,1.348344215111352,0.1793636223368745,0.7815046622610302,1.399278883845293,1.366377701663472,0.5437983619879702,0.9936607131511677,1.507459928261992,1.178409378995382,0.8592522589533019,0.8580315585392724,1.369290214082572,735.3479853479854,803.4432234432235,846.5567765567765,761.1355311355312,701.5018315018315,0.369324,0.119324,0.904480,7.454376,-5.944061,16.942444,518168.498168,139517875.457875,83698315.018315,84.900818,1,1,1,1,1,30.000000
2025-11-11 13:40:15.311,,,,,,,,,,,,,,,,,,,,,,,,,,,,,,,,,,,,,,,,,,/muse/elements/jaw_clench
2025-11-11 13:40:15.545,,,,,,,,,,,,,,,,,,,,,,,,,,,,,,,,,,,,,,,,,,/muse/elements/blink
2025-11-11 13:40:15.652,,,,,,,,,,,,,,,,,,,,,,,,,,,,,,,,,,,,,,,,,,/muse/elements/jaw_clench
2025-11-11 13:40:15.887,1.135072756097985,0.489550224431744,0.9350462484488379,1.179509484610368,1.391513037309072,0.19888930377986,0.5354079271302274,1.339288749176089,1.348344215111352,0.2662044914286119,0.7815046622610302,1.399278883845293,1.366377701663472,0.6067863884468923,0.9936607131511677,1.507459928261992,1.178409378995382,0.7801959471905873,0.8580315585392724,1.369290214082572,697.4725274725275,808.6813186813187,861.8681318681319,801.025641025641,988.7912087912089,0.339661,0.024658,0.909363,5.532837,-4.007568,26.034241,638241.758242,139749963.369963,83691868.131868,106.119858,1,1,1,1,1,30.000000
2025-11-11 13:40:16.887,1.135072756097985,0.502422576197751,0.9350462484488379,1.179509484610368,1.391513037309072,0.03579539510705821,0.5354079271302274,1.339288749176089,1.348344215111352,0.2122929468221176,0.7815046622610302,1.399278883845293,1.366377701663472,0.880330531901134,0.9936607131511677,1.507459928261992,1.178409378995382,0.694725278773215,0.8580315585392724,1.369290214082572,718.8278388278388,804.2490842490843,1006.117216117216,759.92673992674,559.6703296703297,0.350098,0.083618,0.891785,11.058197,8.403931,28.890381,617289.377289,139770109.890110,83606446.886447,104.543060,1,1,1,1,1,30.000000
2025-11-11 13:40:17.888,1.135072756097985,0.3237759212662407,0.9350462484488379,0.85375599511072,1.391513037309072,0.2462943785094164,0.5354079271302274,0.9092437626688942,1.348344215111352,0.5321659220406492,0.7815046622610302,1.383442680311174,1.366377701663472,0.9409781055081488,0.9936607131511677,1.654675112071412,1.178409378995382,0.6655579745832736,0.8580315585392724,1.291421647917834,831.6483516483516,796.5934065934066,823.5897435897436,761.5384615384615,903.3699633699634,0.415039,0.126221,0.916809,9.069366,-4.620667,30.011902,319120.879121,139838608.058608,83586300.366300,93.857552,1,1,1,1,1,30.000000
2025-11-11 13:40:18.600,,,,,,,,,,,,,,,,,,,,,,,,,,,,,,,,,,,,,,,,,,/muse/elements/blink
2025-11-11 13:40:18.888,1.135072756097985,0.2886602580367209,0.9350462484488379,0.934424166255968,1.391513037309072,0.3077053935645934,0.5354079271302274,1.151004255440416,1.348344215111352,0.6843403027563083,0.7815046622610302,1.468341233562296,1.366377701663472,0.7916777806581962,0.9936607131511677,1.465982868469385,1.178409378995382,0.6566439161207644,0.8580315585392724,1.555948510234669,1077.838827838828,793.7728937728938,857.4358974358975,801.4285714285714,701.5018315018315,0.339722,0.095825,1.030640,10.871277,6.445007,19.566803,319120.879121,139646813.186813,83469450.549451,87.444962,1,1,1,1,1,30.000000
2025-11-11 13:40:19.814,,,,,,,,,,,,,,,,,,,,,,,,,,,,,,,,,,,,,,,,,,/muse/elements/jaw_clench
2025-11-11 13:40:19.888,1.135072756097985,0.3613230442041992,0.9350462484488379,1.200373195380904,1.391513037309072,0.3186781164209204,0.5354079271302274,1.184201089899765,1.348344215111352,0.6055633239408807,0.7815046622610302,1.279666973555438,1.366377701663472,0.6980010765821196,0.9936607131511677,1.38443850901664,1.178409378995382,0.7013969847632928,0.8580315585392724,1.632923048524576,685.7875457875458,784.1025641025641,839.7069597069598,777.2527472527473,580.6227106227107,0.337219,0.068359,0.903809,12.972260,-1.181335,39.200897,325567.765568,139667765.567766,83499267.399267,84.914757,1,1,1,1,1,30.000000
2025-11-11 13:40:20.890,1.135072756097985,0.3064681304022335,0.9350462484488379,0.7594694975837659,1.391513037309072,0.3430096767368004,0.5354079271302274,0.901514612023083,1.348344215111352,0.6942448261326484,0.7815046622610302,1.630717244190334,1.366377701663472,0.8330912853700364,0.9936607131511677,1.880972258883495,1.178409378995382,0.8204117993468689,0.8580315585392724,1.460049629978317,857.8388278388279,801.4285714285714,815.1282051282052,784.5054945054945,681.7582417582418,0.344299,0.036499,0.919617,12.628326,-2.317810,28.060455,332820.512821,139727399.267399,83487179.487179,83.259125,1,1,1,1,1,30.000000
2025-11-11 13:40:21.219,,,,,,,,,,,,,,,,,,,,,,,,,,,,,,,,,,,,,,,,,,/muse/elements/blink
2025-11-11 13:40:21.304,,,,,,,,,,,,,,,,,,,,,,,,,,,,,,,,,,,,,,,,,,/muse/elements/jaw_clench
2025-11-11 13:40:21.646,,,,,,,,,,,,,,,,,,,,,,,,,,,,,,,,,,,,,,,,,,/muse/elements/jaw_clench
2025-11-11 13:40:21.816,,,,,,,,,,,,,,,,,,,,,,,,,,,,,,,,,,,,,,,,,,/muse/elements/jaw_clench
2025-11-11 13:40:21.890,1.135072756097985,0.2579688602711299,0.9350462484488379,0.7382895409289825,1.391513037309072,0.3301597770020989,0.5354079271302274,0.8616229691840577,1.348344215111352,0.8512309808443954,0.7815046622610302,1.39374492507592,1.366377701663472,0.7749889406584738,0.9936607131511677,1.884595517157603,1.178409378995382,0.7688317567265542,0.8580315585392724,1.45608921984156,844.9450549450549,808.6813186813187,827.2161172161173,802.6373626373627,1025.457875457875,0.308777,0.116211,0.876770,4.493561,8.448792,21.181793,338461.538462,139667765.567766,83447692.307692,83.195625,1,1,1,1,1,30.000000
2025-11-11 13:40:22.888,1.135072756097985,0.3059528747115191,0.9350462484488379,1.080433324904027,1.391513037309072,0.05199593467075035,0.5354079271302274,0.9593538694241004,1.348344215111352,0.7151530615630685,0.7815046622610302,1.187250173067117,1.366377701663472,0.8774095998910858,0.9936607131511677,1.538288904044277,1.178409378995382,0.7437731121288794,0.8580315585392724,1.228115393264149,782.0879120879121,804.6520146520147,705.934065934066,766.3736263736264,546.3736263736264,0.356079,0.112549,0.919250,11.417084,4.396362,23.125763,348937.728938,139643589.743590,83364688.644689,82.406731,1,1,1,1,1,30.000000
2025-11-11 13:40:23.839,,,,,,,,,,,,,,,,,,,,,,,,,,,,,,,,,,,,,,,,,,/muse/elements/blink
2025-11-11 13:40:23.892,1.135072756097985,0.3365868596788366,0.9350462484488379,1.077098159229641,1.391513037309072,-0.1368148189531382,0.5354079271302274,0.8925889964424317,1.348344215111352,0.3995224681984812,0.7815046622610302,1.098192888541212,1.366377701663472,0.9621516213063498,0.9936607131511677,1.524994580396156,1.178409378995382,0.7343749599973589,0.8580315585392724,1.214705088667856,749.8534798534798,779.2673992673992,758.7179487179487,812.7106227106227,794.5787545787546,0.333496,0.092834,0.986938,-0.500946,-2.213135,-2.280426,348131.868132,139485641.025641,83293772.893773,82.010521,1,1,1,1,1,30.000000
2025-11-11 13:40:24.890,1.135072756097985,0.416174439281175,0.9350462484488379,1.077098159229641,1.391513037309072,-0.08481630409513392,0.5354079271302274,0.8925889964424317,1.348344215111352,0.1597840865775217,0.7815046622610302,1.098192888541212,1.366377701663472,0.8772025575608428,0.9936607131511677,1.524994580396156,1.178409378995382,0.6602079376627631,0.8580315585392724,1.214705088667856,784.5054945054945,804.6520146520147,770.8058608058608,805.8608058608058,909.8168498168499,0.346375,0.152222,0.919495,-1.196289,-6.512299,-1.218719,328791.208791,139126227.106227,83215604.395604,82.525139,1,1,1,1,1,30.000000
2025-11-11 13:40:25.670,,,,,,,,,,,,,,,,,,,,,,,,,,,,,,,,,,,,,,,,,,/muse/elements/blink
2025-11-11 13:40:25.894,1.135072756097985,0.1839977198574955,0.9350462484488379,1.300864036419245,1.391513037309072,0.199157263167183,0.5354079271302274,1.119270913702995,1.348344215111352,0.3789437654989618,0.7815046622610302,1.065264564113909,1.366377701663472,0.8670820193715292,0.9936607131511677,1.394860788026069,1.178409378995382,0.6208190566719625,0.8580315585392724,1.079971641421383,927.948717948718,827.2161172161173,789.7435897435897,815.1282051282052,637.8388278388279,0.362061,0.080933,0.941040,-0.829926,-6.549683,0.814972,327179.487179,139201172.161172,83317948.717949,83.332474,1,1,1,1,1,30.000000
2025-11-11 13:40:26.097,,,,,,,,,,,,,,,,,,,,,,,,,,,,,,,,,,,,,,,,,,/muse/elements/blink
2025-11-11 13:40:26.896,1.135072756097985,-0.03956019499556376,0.9350462484488379,1.114428963486665,1.391513037309072,0.1664353056409407,0.5354079271302274,1.162730223411431,1.348344215111352,0.4709409798236076,0.7815046622610302,1.056092014920033,1.366377701663472,0.7139857993501054,0.9936607131511677,1.299091443101213,1.178409378995382,0.697610549834091,0.8580315585392724,1.054677455130376,729.3040293040293,771.6117216117216,763.956043956044,804.6520146520147,714.7985347985348,0.424561,0.198364,0.887817,-1.958923,0.867310,-13.069458,313479.853480,139251135.531136,83313919.413919,81.207710,1,1,1,1,1,30.000000
2025-11-11 13:40:27.888,1.135072756097985,0.1141146402471334,0.9350462484488379,1.148483215935114,1.391513037309072,0.2077007088897525,0.5354079271302274,1.152492758769972,1.348344215111352,0.7522093587534161,0.7815046622610302,1.072888127171273,1.366377701663472,0.7786904375984965,0.9936607131511677,1.279250899239676,1.178409378995382,0.5710451563504561,0.8580315585392724,1.14423141936376,642.2710622710623,799.0109890109891,780.0732600732601,764.3589743589744,824.3956043956044,0.381714,0.144348,0.905701,-12.232056,-2.661743,-20.135040,317509.157509,138988424.908425,83211575.091575,80.095375,1,1,1,1,1,30.000000
2025-11-11 13:40:28.888,1.135072756097985,-0.1449402341901421,0.9350462484488379,1.212493927296044,1.391513037309072,0.4164158622591297,0.5354079271302274,1.042360552477015,1.348344215111352,0.8470342114105166,0.7815046622610302,0.9172244282992542,1.366377701663472,0.9205814664151276,0.9936607131511677,1.359542111459073,1.178409378995382,0.6880920149465257,0.8580315585392724,1.387681799268349,658.7912087912088,796.5934065934066,794.1758241758242,792.967032967033,582.6373626373627,0.345520,0.074707,0.924561,-10.774078,-5.712280,-24.778137,325567.765568,139117362.637363,83293772.893773,79.868561,1,1,1,1,1,30.000000
2025-11-11 13:40:29.888,1.135072756097985,-0.0407307367293725,0.9350462484488379,0.9162601584706542,1.391513037309072,0.3127256471470859,0.5354079271302274,1.089981274582128,1.348344215111352,0.7051569396386013,0.7815046622610302,1.108244216654763,1.366377701663472,0.6964033165846168,0.9936607131511677,1.420408065308375,1.178409378995382,0.6446061117673103,0.8580315585392724,1.335914249037631,941.2454212454213,796.996336996337,817.1428571428571,809.8901098901099,693.040293040293,0.381897,0.165039,0.889893,-7.132874,-6.684265,-16.396637,332014.652015,139129450.549451,83350183.150183,86.179512,1,1,1,1,1,30.000000
2025-11-11 13:40:30.888,1.135072756097985,-0.2875271174931988,0.4739239287976836,1.050650346076754,1.391513037309072,0.1929411342833737,0.7345778666833045,1.223248180041168,1.348344215111352,0.6855623695413289,0.7114422559146516,1.192957720453132,1.366377701663472,0.6306401148595491,0.9870949185946831,1.45599504515786,1.178409378995382,0.3896700365473303,0.9030691692498136,1.254253297863991,695.4578754578755,798.6080586080586,773.6263736263736,817.1428571428571,857.8388278388279,0.412354,0.061340,0.927307,-10.003967,-7.379608,-21.039734,331208.791209,139199560.439560,83364688.644689,86.179512,1,1,1,1,1,30.000000
2025-11-11 13:40:31.879,,,,,,,,,,,,,,,,,,,,,,,,,,,,,,,,,,,,,,,,,,/muse/elements/blink
2025-11-11 13:40:31.894,1.135072756097985,-0.02244221472729731,0.4846688018157442,0.976881549881926,1.391513037309072,-0.01642957478940535,0.634496643320282,1.139323211807733,1.348344215111352,0.4457263938546155,0.6534073298531897,1.147421374720361,1.366377701663472,0.5405383357332919,0.9381056428831677,1.343044867113486,1.178409378995382,0.336397077216729,0.8576646189129686,1.170490406767563,586.2637362637363,796.996336996337,803.040293040293,787.7289377289378,689.0109890109891,0.365662,0.136108,0.869324,-13.361053,-0.747681,-25.249176,319926.739927,139148791.208791,83450915.750916,86.179512,1,1,1,1,1,30.000000
2025-11-11 13:40:32.892,1.135072756097985,-0.06089309751611467,0.5998233474661699,0.6308402709475476,1.391513037309072,-0.2750280257947382,0.5253509700509917,1.065996858318766,1.348344215111352,0.4340610508173606,0.2729813013217336,0.9457762852273387,1.366377701663472,0.4181592448313426,0.9827569758087992,1.251815038627945,1.178409378995382,0.392210291379064,1.01565645879954,1.196970699210418,967.4358974358975,796.996336996337,817.948717948718,786.5201465201466,867.9120879120879,0.395569,0.173218,0.921326,-8.867493,-3.618774,-13.884430,313479.853480,138994065.934066,83498461.538462,86.799446,1,1,1,1,1,30.000000
2025-11-11 13:40:32.988,,,,,,,,,,,,,,,,,,,,,,,,,,,,,,,,,,,,,,,,,,/muse/elements/blink
2025-11-11 13:40:33.888,1.135072756097985,-0.06089001153265093,0.5998233474661699,0.8562541283044438,1.391513037309072,-0.04863658414175639,0.5253509700509917,1.033835779552693,1.348344215111352,0.2168084454695154,0.2729813013217336,1.139733239061909,1.366377701663472,0.516778728333773,0.9827569758087992,1.288153010777161,1.178409378995382,0.4438825982883647,1.01565645879954,1.41032320350291,759.5238095238095,803.040293040293,781.6849816849817,792.967032967033,617.6923076923077,0.366943,0.144775,0.893860,-8.074951,-6.026306,-16.650848,315091.575092,139185054.945055,83566153.846154,87.643951,1,1,1,1,1,30.000000
2025-11-11 13:40:34.896,1.135072756097985,0.2395622417443912,0.5765114949355551,0.9609618582941247,1.391513037309072,0.5232925980941477,0.7134280465586457,1.101807776426923,1.348344215111352,0.9700810272524167,0.4542124880269385,1.188437782814367,1.366377701663472,0.5344933109672166,0.8959182381826768,1.287524203815208,1.178409378995382,0.3808685390960675,0.7175632174520469,1.292200669478491,891.6849816849817,789.7435897435897,779.2673992673992,799.8168498168499,764.7619047619048,0.424500,0.228271,0.883057,-11.312408,-7.379608,-24.112701,317509.157509,139136703.296703,83606446.886447,87.478386,1,1,1,1,1,30.000000
2025-11-11 13:40:35.888,1.135072756097985,0.1672718559160028,0.4963863074297785,1.040911086258515,1.391513037309072,0.4485118068096859,0.41089624119769,0.9548173940619513,1.348344215111352,0.9843072820328695,0.3907499361855246,1.066326283579422,1.366377701663472,0.51841671178747,0.8739169956345938,1.288741450507896,1.178409378995382,0.4436859836031014,0.762026760139196,1.224807267800304,784.1025641025641,794.5787545787546,792.967032967033,797.3992673992674,795.7875457875458,0.382874,0.142578,0.882080,-3.723450,1.607513,-5.824432,320732.600733,139215677.655678,83721684.981685,86.499260,1,1,1,1,1,30.000000
2025-11-11 13:40:36.888,1.135072756097985,0.1040067720087898,0.4963863074297785,1.395348292816418,1.391513037309072,0.1096425633147414,0.41089624119769,1.251161801537163,1.348344215111352,0.5375996139750113,0.3907499361855246,1.209831076417909,1.366377701663472,0.4924814045906379,0.8739169956345938,1.434195268017871,1.178409378995382,0.459137728047991,0.762026760139196,1.262642139860482,772.8205128205128,799.8168498168499,805.0549450549451,790.5494505494506,801.025641025641,0.314209,0.139465,0.951233,-6.497345,-2.100983,-20.277100,332014.652015,139297875.457875,83857069.597070,84.719513,1,1,1,1,1,30.000000
2025-11-11 13:40:37.482,,,,,,,,,,,,,,,,,,,,,,,,,,,,,,,,,,,,,,,,,,/muse/elements/blink
2025-11-11 13:40:37.888,1.135072756097985,0.2462087959793733,0.4963863074297785,1.555959419746667,1.391513037309072,-0.2373099805845968,0.41089624119769,1.205087409653928,1.348344215111352,0.6861201075417628,0.3907499361855246,1.136561291529772,1.366377701663472,0.6017415435994687,0.8739169956345938,1.492857589081539,1.178409378995382,0.5247225057388002,0.762026760139196,1.105555299517858,1006.923076923077,807.4725274725275,785.3113553113553,803.8461538461539,620.1098901098901,0.332642,0.170349,0.902039,-0.994415,-11.783447,-19.536896,347326.007326,139084322.344322,83859487.179487,84.344528,1,1,1,1,1,30.000000
2025-11-11 13:40:38.809,,,,,,,,,,,,,,,,,,,,,,,,,,,,,,,,,,,,,,,,,,/muse/elements/blink
2025-11-11 13:40:38.889,1.135072756097985,0.5100604506844197,0.4963863074297785,1.60149470539676,1.391513037309072,-0.06684926253040321,0.41089624119769,1.112018618458608,1.348344215111352,0.6500667713423126,0.3907499361855246,0.8933692290522174,1.366377701663472,0.6460584896715433,0.8739169956345938,1.499741979975935,1.178409378995382,0.4009605384934021,0.762026760139196,1.076486167355505,943.2600732600733,823.5897435897436,808.2783882783883,789.7435897435897,1317.985347985348,0.341309,0.096558,0.901245,0.792542,2.631836,-0.029907,364249.084249,139459853.479853,84068205.128205,83.266052,1,1,1,1,1,30.000000
2025-11-11 13:40:38.979,,,,,,,,,,,,,,,,,,,,,,,,,,,,,,,,,,,,,,,,,,/muse/elements/blink
