TimeStamp,Delta_TP9,Delta_AF7,Delta_AF8,Delta_TP10,Theta_TP9,Theta_AF7,Theta_AF8,Theta_TP10,Alpha_TP9,Alpha_AF7,Alpha_AF8,Alpha_TP10,Beta_TP9,Beta_AF7,Beta_AF8,Beta_TP10,Gamma_TP9,Gamma_AF7,Gamma_AF8,Gamma_TP10,RAW_TP9,RAW_AF7,RAW_AF8,RAW_TP10,AUX_RIGHT,Accelerometer_X,Accelerometer_Y,Accelerometer_Z,Gyro_X,Gyro_Y,Gyro_Z,PPG_Ambient,PPG_IR,PPG_Red,Heart_Rate,HeadBandOn,HSI_TP9,HSI_AF7,HSI_AF8,HSI_TP10,Battery,Elements
2025-11-11 14:00:16.384,,,,,,,,,,,,,,,,,,,,,,,,,,,,,,,,,,,,,,,,,,/muse/event/connected Muse-135C
2025-11-11 14:00:16.444,,,,,,,,,,,,,,,,,,,,,,,,,,,,,,,,,,,,,,,,,,/muse/elements/blink
2025-11-11 14:00:17.385,1.571315060897658,1.036694346929069,0.813013438604502,1.788340532267337,1.620802924292133,0.7726588542345543,0.5749398856781787,1.909812995699365,1.413433251249537,0.7605244782862713,0.3656130357765173,1.434602092920786,1.427174822063115,0.7369081975341382,0.390640826713327,1.116348362860113,0.3603695742960461,0.4715305450558199,0.07462597137931731,0.5627866618045886,802.6373626373627,808.2783882783883,827.6190476190476,815.1282051282052,796.1904761904763,-0.077881,-0.084839,0.949036,34.490509,29.181976,37.369080,296556.776557,131940366.300366,60043076.923077,83.135086,1,1,1,1,1,25.000000
2025-11-11 14:00:18.261,,,,,,,,,,,,,,,,,,,,,,,,,,,,,,,,,,,,,,,,,,/muse/elements/blink
2025-11-11 14:00:18.386,1.571315060897658,1.158663668663028,0.813013438604502,1.586760756356424,1.620802924292133,0.6181728022250159,0.5749398856781787,1.215518612831485,1.413433251249537,0.7605244782862713,0.3656130357765173,1.127204757463799,1.427174822063115,0.6874080238311608,0.390640826713327,1.066247634724169,0.3603695742960461,0.46858454620031,0.07462597137931731,0.8471689249090241,805.4578754578755,806.2637362637363,783.2967032967033,826.4102564102565,659.5970695970697,0.194397,-0.224121,0.860962,8.501129,2.878571,44.666443,297362.637363,132459340.659341,60508864.468864,92.715813,1,1,1,1,1,25.000000
2025-11-11 14:00:19.386,1.571315060897658,1.203707627263367,0.813013438604502,1.641595570153968,1.620802924292133,0.1652661805427788,0.5749398856781787,1.25067620728324,1.413433251249537,0.09796254550574779,0.3656130357765173,0.8897445220127506,1.427174822063115,0.6466696719414052,0.390640826713327,1.078276135145637,0.3603695742960461,0.4668627074779714,0.07462597137931731,0.8416144484788605,667.2527472527473,834.8717948717949,701.5018315018315,599.9633699633699,761.1355311355312,0.625122,-0.137024,1.001038,-32.950287,-31.006317,-26.034241,303003.663004,134584395.604396,61925567.765568,92.715813,1,1,1,1,1,25.000000
2025-11-11 14:00:19.562,,,,,,,,,,,,,,,,,,,,,,,,,,,,,,,,,,,,,,,,,,/muse/elements/blink
2025-11-11 14:00:20.386,1.571315060897658,1.203707627263367,0.813013438604502,1.641595570153968,1.620802924292133,0.1652661805427788,0.5749398856781787,1.25067620728324,1.413433251249537,0.09796254550574779,0.3656130357765173,0.8897445220127506,1.427174822063115,0.6466696719414052,0.390640826713327,1.078276135145637,0.3603695742960461,0.4668627074779714,0.07462597137931731,0.8416144484788605,815.5311355311355,808.6813186813187,788.5347985347986,833.6630036630037,756.7032967032967,0.333740,0.022644,1.004517,-33.862457,17.383575,-40.785980,298974.358974,133261978.021978,61551648.351648,92.715813,1,1,1,1,1,25.000000
2025-11-11 14:00:20.783,,,,,,,,,,,,,,,,,,,,,,,,,,,,,,,,,,,,,,,,,,/muse/elements/blink
2025-11-11 14:00:21.386,1.571315060897658,1.203707627263367,0.813013438604502,1.641595570153968,1.620802924292133,0.1652661805427788,0.5749398856781787,1.25067620728324,1.413433251249537,0.09796254550574779,0.3656130357765173,0.8897445220127506,1.427174822063115,0.6466696719414052,0.390640826713327,1.078276135145637,0.3603695742960461,0.4668627074779714,0.07462597137931731,0.8416144484788605,759.92673992674,842.5274725274726,852.1978021978023,742.1978021978023,665.6410256410256,-0.008850,0.232910,0.903015,-22.751923,13.570404,-85.788879,297362.637363,131778388.278388,60765934.065934,92.715813,1,2,1,1,2,25.000000
2025-11-11 14:00:21.485,,,,,,,,,,,,,,,,,,,,,,,,,,,,,,,,,,,,,,,,,,/muse/elements/blink
2025-11-11 14:00:21.910,,,,,,,,,,,,,,,,,,,,,,,,,,,,,,,,,,,,,,,,,,/muse/elements/blink
2025-11-11 14:00:22.388,1.571315060897658,1.203707627263367,0.813013438604502,1.641595570153968,1.620802924292133,0.1652661805427788,0.5749398856781787,1.25067620728324,1.413433251249537,0.09796254550574779,0.3656130357765173,0.8897445220127506,1.427174822063115,0.6466696719414052,0.390640826713327,1.078276135145637,0.3603695742960461,0.4668627074779714,0.07462597137931731,0.8416144484788605,844.5421245421246,793.7728937728938,890.8791208791209,838.0952380952381,722.0512820512821,-0.226624,-0.084717,0.985291,15.626526,3.730927,-37.660675,297362.637363,130371355.311355,59709450.549451,94.714348,1,2,1,1,2,25.000000
2025-11-11 14:00:23.386,0.9805181614044917,1.203707627263367,0.813013438604502,1.641595570153968,1.12638754837351,0.1652661805427788,0.5749398856781787,1.25067620728324,1.032846698882862,0.09796254550574779,0.3656130357765173,0.8897445220127506,1.277934195066803,0.6466696719414052,0.390640826713327,1.078276135145637,0.8117604820069816,0.4668627074779714,0.07462597137931731,0.8416144484788605,846.959706959707,805.4578754578755,788.1318681318681,811.9047619047619,752.6739926739926,0.133362,-0.135925,0.863403,19.970551,1.353302,11.977844,302197.802198,131776776.556777,60514505.494505,97.177162,1,2,1,1,2,25.000000
2025-11-11 14:00:23.642,,,,,,,,,,,,,,,,,,,,,,,,,,,,,,,,,,,,,,,,,,/muse/elements/blink
2025-11-11 14:00:23.727,,,,,,,,,,,,,,,,,,,,,,,,,,,,,,,,,,,,,,,,,,/muse/elements/jaw_clench
2025-11-11 14:00:23.918,,,,,,,,,,,,,,,,,,,,,,,,,,,,,,,,,,,,,,,,,,/muse/elements/blink
2025-11-11 14:00:23.918,,,,,,,,,,,,,,,,,,,,,,,,,,,,,,,,,,,,,,,,,,/muse/elements/jaw_clench
2025-11-11 14:00:24.386,0.9774272213211573,0.7880930430123395,0.813013438604502,1.641595570153968,1.162764739438145,0.4583769698725717,0.5749398856781787,1.25067620728324,1.047337338478464,0.6243505344660425,0.3656130357765173,0.8897445220127506,1.33264279329781,0.755837147958213,0.390640826713327,1.078276135145637,0.8008599153023491,0.4440644992521305,0.07462597137931731,0.8416144484788605,829.2307692307693,774.8351648351648,747.8388278388279,788.9377289377289,576.1904761904763,0.496155,-0.304565,0.843445,-2.377625,-0.657959,56.808777,329597.069597,133016190.476190,61349377.289377,97.177162,1,1,1,1,1,25.000000
2025-11-11 14:00:25.049,,,,,,,,,,,,,,,,,,,,,,,,,,,,,,,,,,,,,,,,,,/muse/elements/blink
2025-11-11 14:00:25.135,,,,,,,,,,,,,,,,,,,,,,,,,,,,,,,,,,,,,,,,,,/muse/elements/jaw_clench
2025-11-11 14:00:25.386,0.9765812493388484,0.8830629793178679,0.813013438604502,1.641595570153968,1.182264540949608,0.6285320349805091,0.5749398856781787,1.25067620728324,0.9687976938662132,0.5624942744413353,0.3656130357765173,0.8897445220127506,1.355195487186624,0.779199357171721,0.390640826713327,1.078276135145637,0.8072884858771801,0.1912853624655294,0.07462597137931731,0.8416144484788605,796.996336996337,759.92673992674,1021.831501831502,808.6813186813187,1277.289377289377,0.245544,0.027527,0.953003,5.487976,-6.639404,61.706085,296556.776557,134699633.699634,62412307.692308,98.782219,1,1,1,1,1,25.000000
2025-11-11 14:00:25.648,,,,,,,,,,,,,,,,,,,,,,,,,,,,,,,,,,,,,,,,,,/muse/elements/blink
2025-11-11 14:00:26.355,,,,,,,,,,,,,,,,,,,,,,,,,,,,,,,,,,,,,,,,,,/muse/elements/blink
2025-11-11 14:00:26.385,0.9765812493388484,0.8830629793178679,0.813013438604502,1.641595570153968,1.182264540949608,0.6285320349805091,0.5749398856781787,1.25067620728324,0.9687976938662132,0.5624942744413353,0.3656130357765173,0.8897445220127506,1.355195487186624,0.779199357171721,0.390640826713327,1.078276135145637,0.8072884858771801,0.1912853624655294,0.07462597137931731,0.8416144484788605,782.893772893773,760.3296703296703,642.2710622710623,783.2967032967033,735.3479853479854,0.433533,0.111145,0.969177,26.266022,-13.091888,75.037231,296556.776557,132758315.018315,61558901.098901,101.704483,1,2,1,1,2,25.000000
2025-11-11 14:00:27.309,,,,,,,,,,,,,,,,,,,,,,,,,,,,,,,,,,,,,,,,,,/muse/elements/blink
2025-11-11 14:00:27.386,0.9765812493388484,0.8830629793178679,0.813013438604502,1.641595570153968,1.182264540949608,0.6285320349805091,0.5749398856781787,1.25067620728324,0.9687976938662132,0.5624942744413353,0.3656130357765173,0.8897445220127506,1.355195487186624,0.779199357171721,0.390640826713327,1.078276135145637,0.8072884858771801,0.1912853624655294,0.07462597137931731,0.8416144484788605,774.4322344322345,764.7619047619048,734.5421245421246,759.1208791208792,542.7472527472528,0.119141,0.020569,1.049011,26.310883,18.377991,19.641571,300586.080586,132481098.901099,61282490.842491,100.949509,1,2,1,1,2,25.000000
2025-11-11 14:00:28.097,,,,,,,,,,,,,,,,,,,,,,,,,,,,,,,,,,,,,,,,,,/muse/elements/blink
2025-11-11 14:00:28.386,0.9765812493388484,0.8830629793178679,0.813013438604502,1.641595570153968,1.182264540949608,0.6285320349805091,0.5749398856781787,1.25067620728324,0.9687976938662132,0.5624942744413353,0.3656130357765173,0.8897445220127506,1.355195487186624,0.779199357171721,0.390640826713327,1.078276135145637,0.8072884858771801,0.1912853624655294,0.07462597137931731,0.8416144484788605,852.1978021978023,759.5238095238095,755.4945054945055,866.7032967032967,846.5567765567765,0.404907,-0.052612,0.743408,-0.672913,14.841461,-13.241425,296556.776557,134161318.681319,62529963.369963,100.949509,1,2,1,1,2,25.000000
2025-11-11 14:00:28.417,,,,,,,,,,,,,,,,,,,,,,,,,,,,,,,,,,,,,,,,,,/muse/elements/blink
2025-11-11 14:00:29.332,,,,,,,,,,,,,,,,,,,,,,,,,,,,,,,,,,,,,,,,,,/muse/elements/blink
2025-11-11 14:00:29.386,0.9765812493388484,0.8830629793178679,0.813013438604502,1.641595570153968,1.182264540949608,0.6285320349805091,0.5749398856781787,1.25067620728324,0.9687976938662132,0.5624942744413353,0.3656130357765173,0.8897445220127506,1.355195487186624,0.779199357171721,0.390640826713327,1.078276135145637,0.8072884858771801,0.1912853624655294,0.07462597137931731,0.8416144484788605,820.3663003663004,748.2417582417582,667.6556776556777,838.4981684981685,931.978021978022,0.459900,-0.206787,0.932617,-27.649231,26.811829,-75.007324,298168.498168,133802710.622711,62212454.212454,100.269501,1,2,1,1,2,25.000000
2025-11-11 14:00:29.736,,,,,,,,,,,,,,,,,,,,,,,,,,,,,,,,,,,,,,,,,,/muse/elements/blink
2025-11-11 14:00:30.250,,,,,,,,,,,,,,,,,,,,,,,,,,,,,,,,,,,,,,,,,,/muse/elements/blink
2025-11-11 14:00:30.386,0.9765812493388484,0.8830629793178679,0.813013438604502,1.641595570153968,1.182264540949608,0.6285320349805091,0.5749398856781787,1.25067620728324,0.9687976938662132,0.5624942744413353,0.3656130357765173,0.8897445220127506,1.355195487186624,0.779199357171721,0.390640826713327,1.078276135145637,0.8072884858771801,0.1912853624655294,0.07462597137931731,0.8416144484788605,813.919413919414,814.7252747252747,778.4615384615385,788.5347985347986,565.3113553113553,-0.037598,0.026489,1.068787,9.817047,11.252594,-33.279266,295750.915751,132584249.084249,61237362.637363,98.670937,1,2,1,1,2,25.000000
2025-11-11 14:00:30.720,,,,,,,,,,,,,,,,,,,,,,,,,,,,,,,,,,,,,,,,,,/muse/elements/blink
2025-11-11 14:00:31.392,0.9765812493388484,0.8830629793178679,0.813013438604502,1.641595570153968,1.182264540949608,0.6285320349805091,0.5749398856781787,1.25067620728324,0.9687976938662132,0.5624942744413353,0.3656130357765173,0.8897445220127506,1.355195487186624,0.779199357171721,0.390640826713327,1.078276135145637,0.8072884858771801,0.1912853624655294,0.07462597137931731,0.8416144484788605,794.1758241758242,818.7545787545788,755.0915750915751,798.6080586080586,724.8717948717949,0.046753,0.330261,0.973022,-18.908844,-13.824615,-80.951385,294945.054945,133296630.036630,61486373.626374,96.801254,1,2,1,1,2,25.000000
2025-11-11 14:00:32.389,0.9765812493388484,0.8650764921241528,0.813013438604502,1.641595570153968,1.182264540949608,0.3632986139301642,0.5749398856781787,1.25067620728324,0.9687976938662132,0.6810072480668991,0.3656130357765173,0.8897445220127506,1.355195487186624,0.5953923517881957,0.390640826713327,1.078276135145637,0.8072884858771801,0.2089673232211824,0.07462597137931731,0.8416144484788605,569.7435897435897,774.4322344322345,800.6227106227107,614.0659340659341,770,0.211121,-0.003479,1.179504,4.112244,-26.983795,-4.276733,304615.384615,132954945.054945,61331648.351648,97.620926,1,2,1,1,2,25.000000
2025-11-11 14:00:32.551,,,,,,,,,,,,,,,,,,,,,,,,,,,,,,,,,,,,,,,,,,/muse/elements/blink
2025-11-11 14:00:33.386,0.9765812493388484,0.6636544601815113,0.813013438604502,1.641595570153968,1.182264540949608,0.4370915049446111,0.5749398856781787,1.25067620728324,0.9687976938662132,0.6639660823821715,0.3656130357765173,0.8897445220127506,1.355195487186624,0.6288729034998923,0.390640826713327,1.078276135145637,0.8072884858771801,0.3061096192745837,0.07462597137931731,0.8416144484788605,791.3553113553114,725.2747252747253,745.0183150183151,813.919413919414,553.2234432234433,0.437439,-0.096741,0.860901,31.955872,-10.706787,56.262970,327985.347985,134022710.622711,62351868.131868,97.620926,1,2,1,1,2,25.000000
2025-11-11 14:00:33.401,,,,,,,,,,,,,,,,,,,,,,,,,,,,,,,,,,,,,,,,,,/muse/elements/blink
2025-11-11 14:00:34.126,,,,,,,,,,,,,,,,,,,,,,,,,,,,,,,,,,,,,,,,,,/muse/elements/blink
2025-11-11 14:00:34.393,0.9765812493388484,0.5018965418476152,0.813013438604502,1.641595570153968,1.182264540949608,0.4263487378896146,0.5749398856781787,1.25067620728324,0.9687976938662132,0.609287478595943,0.3656130357765173,0.8897445220127506,1.355195487186624,0.628081393127934,0.390640826713327,1.078276135145637,0.8072884858771801,0.3444860920437945,0.07462597137931731,0.8416144484788605,774.4322344322345,757.1062271062272,552.014652014652,790.5494505494506,1200.32967032967,0.549011,-0.108337,0.713379,42.857056,3.147736,88.532867,295750.915751,134392600.732601,63023150.183150,97.620926,1,2,1,1,2,25.000000
2025-11-11 14:00:35.129,,,,,,,,,,,,,,,,,,,,,,,,,,,,,,,,,,,,,,,,,,/muse/elements/blink
2025-11-11 14:00:35.385,0.9765812493388484,0.5018965418476152,0.813013438604502,1.641595570153968,1.182264540949608,0.4263487378896146,0.5749398856781787,1.25067620728324,0.9687976938662132,0.609287478595943,0.3656130357765173,0.8897445220127506,1.355195487186624,0.628081393127934,0.390640826713327,1.078276135145637,0.8072884858771801,0.3444860920437945,0.07462597137931731,0.8416144484788605,805.4578754578755,752.2710622710623,732.1245421245421,801.4285714285714,700.6959706959707,0.369141,0.147339,0.890259,18.714447,5.772095,64.188385,296556.776557,133294212.454212,62559780.219780,97.821747,1,2,1,1,2,25.000000
2025-11-11 14:00:36.386,0.9765812493388484,0.5018965418476152,0.813013438604502,1.641595570153968,1.182264540949608,0.4263487378896146,0.5749398856781787,1.25067620728324,0.9687976938662132,0.609287478595943,0.3656130357765173,0.8897445220127506,1.355195487186624,0.628081393127934,0.390640826713327,1.078276135145637,0.8072884858771801,0.3444860920437945,0.07462597137931731,0.8416144484788605,788.5347985347986,824.3956043956044,799.8168498168499,811.9047619047619,613.6630036630037,0.223511,0.038269,0.844971,-3.828125,3.985138,19.484558,298974.358974,132857435.897436,62490476.190476,98.733742,1,2,1,4,2,25.000000
2025-11-11 14:00:36.942,,,,,,,,,,,,,,,,,,,,,,,,,,,,,,,,,,,,,,,,,,/muse/elements/blink
2025-11-11 14:00:37.385,0.9765812493388484,0.5018965418476152,0.813013438604502,1.641595570153968,1.182264540949608,0.4263487378896146,0.5749398856781787,1.25067620728324,0.9687976938662132,0.609287478595943,0.3656130357765173,0.8897445220127506,1.355195487186624,0.628081393127934,0.390640826713327,1.078276135145637,0.8072884858771801,0.3444860920437945,0.07462597137931731,0.8416144484788605,628.1684981684982,804.2490842490843,633.0036630036631,639.047619047619,703.5164835164835,0.396606,0.273865,0.919067,-20.478973,7.514191,-56.943359,296556.776557,134068644.688645,63148058.608059,129.675049,1,2,1,1,2,25.000000
2025-11-11 14:00:37.559,,,,,,,,,,,,,,,,,,,,,,,,,,,,,,,,,,,,,,,,,,/muse/elements/blink
2025-11-11 14:00:38.261,,,,,,,,,,,,,,,,,,,,,,,,,,,,,,,,,,,,,,,,,,/muse/elements/blink
2025-11-11 14:00:38.386,0.9765812493388484,0.5018965418476152,0.813013438604502,1.641595570153968,1.182264540949608,0.4263487378896146,0.5749398856781787,1.25067620728324,0.9687976938662132,0.609287478595943,0.3656130357765173,0.8897445220127506,1.355195487186624,0.628081393127934,0.390640826713327,1.078276135145637,0.8072884858771801,0.3444860920437945,0.07462597137931731,0.8416144484788605,864.2857142857143,913.040293040293,996.8498168498169,894.5054945054945,702.3076923076924,0.090027,-0.052612,0.976196,-6.452484,10.803986,-53.077850,298974.358974,133005714.285714,62467912.087912,118.481445,1,2,1,1,2,25.000000
2025-11-11 14:00:39.157,,,,,,,,,,,,,,,,,,,,,,,,,,,,,,,,,,,,,,,,,,/muse/elements/blink
2025-11-11 14:00:39.386,0.9765812493388484,0.5018965418476152,0.813013438604502,1.641595570153968,1.182264540949608,0.4263487378896146,0.5749398856781787,1.25067620728324,0.9687976938662132,0.609287478595943,0.3656130357765173,0.8897445220127506,1.355195487186624,0.628081393127934,0.390640826713327,1.078276135145637,0.8072884858771801,0.3444860920437945,0.07462597137931731,0.8416144484788605,767.1794871794872,774.0293040293041,919.4871794871796,784.9084249084249,676.5201465201466,0.151001,-0.143250,0.906677,0.994415,28.232422,-20.695801,294139.194139,132389230.769231,62083516.483516,118.058250,1,2,1,2,2,25.000000
2025-11-11 14:00:39.496,,,,,,,,,,,,,,,,,,,,,,,,,,,,,,,,,,,,,,,,,,/muse/elements/blink
2025-11-11 14:00:39.987,,,,,,,,,,,,,,,,,,,,,,,,,,,,,,,,,,,,,,,,,,/muse/elements/blink
2025-11-11 14:00:40.386,0.9765812493388484,0.5018965418476152,0.813013438604502,1.641595570153968,1.182264540949608,0.4263487378896146,0.5749398856781787,1.25067620728324,0.9687976938662132,0.609287478595943,0.3656130357765173,0.8897445220127506,1.355195487186624,0.628081393127934,0.390640826713327,1.078276135145637,0.8072884858771801,0.3444860920437945,0.07462597137931731,0.8416144484788605,819.1575091575091,761.5384615384615,747.8388278388279,808.6813186813187,755.0915750915751,0.057129,-0.063049,1.023621,-19.357452,15.170441,-45.982361,296556.776557,131975824.175824,61670109.890110,108.189369,1,2,1,1,2,25.000000
2025-11-11 14:00:40.883,,,,,,,,,,,,,,,,,,,,,,,,,,,,,,,,,,,,,,,,,,/muse/elements/blink
2025-11-11 14:00:41.386,0.9765812493388484,0.5018965418476152,0.813013438604502,1.641595570153968,1.182264540949608,0.4263487378896146,0.5749398856781787,1.25067620728324,0.9687976938662132,0.609287478595943,0.3656130357765173,0.8897445220127506,1.355195487186624,0.628081393127934,0.390640826713327,1.078276135145637,0.8072884858771801,0.3444860920437945,0.07462597137931731,0.8416144484788605,732.5274725274726,766.7765567765568,529.4505494505495,741.7948717948718,662.4175824175825,0.005249,0.094849,0.864014,-5.787048,18.258362,20.299530,304615.384615,130956410.256410,61255897.435897,102.255142,1,2,1,2,2,25.000000
2025-11-11 14:00:42.386,0.9765812493388484,0.5018965418476152,0.813013438604502,1.641595570153968,1.182264540949608,0.4263487378896146,0.5749398856781787,1.25067620728324,0.9687976938662132,0.609287478595943,0.3656130357765173,0.8897445220127506,1.355195487186624,0.628081393127934,0.390640826713327,1.078276135145637,0.8072884858771801,0.3444860920437945,0.07462597137931731,0.8416144484788605,796.1904761904763,1622.197802197802,633.8095238095239,792.1611721611722,613.2600732600732,-0.383423,0.052856,1.278992,-0.157013,-3.521576,11.446991,364249.084249,130177948.717949,60159120.879121,102.255142,1,2,1,2,2,25.000000
2025-11-11 14:00:43.235,,,,,,,,,,,,,,,,,,,,,,,,,,,,,,,,,,,,,,,,,,/muse/elements/blink
2025-11-11 14:00:43.385,0.9765812493388484,0.5018965418476152,0.813013438604502,1.641595570153968,1.182264540949608,0.4263487378896146,0.5749398856781787,1.25067620728324,0.9687976938662132,0.609287478595943,0.3656130357765173,0.8897445220127506,1.355195487186624,0.628081393127934,0.390640826713327,1.078276135145637,0.8072884858771801,0.3444860920437945,0.07462597137931731,0.8416144484788605,846.1538461538462,777.6556776556777,467.8021978021978,843.7362637362637,711.978021978022,0.219788,-0.211731,0.935791,13.996582,-7.686157,75.478363,296556.776557,132724468.864469,61898168.498168,94.220848,1,2,1,2,2,25.000000
2025-11-11 14:00:44.128,,,,,,,,,,,,,,,,,,,,,,,,,,,,,,,,,,,,,,,,,,/muse/elements/blink
2025-11-11 14:00:44.385,0.9765812493388484,0.5018965418476152,0.813013438604502,1.641595570153968,1.182264540949608,0.4263487378896146,0.5749398856781787,1.25067620728324,0.9687976938662132,0.609287478595943,0.3656130357765173,0.8897445220127506,1.355195487186624,0.628081393127934,0.390640826713327,1.078276135145637,0.8072884858771801,0.3444860920437945,0.07462597137931731,0.8416144484788605,704.7252747252747,774.4322344322345,1059.70695970696,751.0622710622711,642.2710622710623,0.160645,-0.007629,1.587952,23.447266,12.142334,99.523773,297362.637363,133681831.501832,62419560.439560,93.248520,1,2,2,2,2,25.000000
2025-11-11 14:00:44.873,,,,,,,,,,,,,,,,,,,,,,,,,,,,,,,,,,,,,,,,,,/muse/elements/blink
2025-11-11 14:00:45.394,0.9765812493388484,0.5018965418476152,0.813013438604502,1.641595570153968,1.182264540949608,0.4263487378896146,0.5749398856781787,1.25067620728324,0.9687976938662132,0.609287478595943,0.3656130357765173,0.8897445220127506,1.355195487186624,0.628081393127934,0.390640826713327,1.078276135145637,0.8072884858771801,0.3444860920437945,0.07462597137931731,0.8416144484788605,728.0952380952381,821.1721611721612,726.4835164835165,730.1098901098901,575.7875457875458,-0.074036,0.043213,0.946838,-22.632294,-3.992615,14.347992,300586.080586,132071721.611722,61358241.758242,93.248520,1,2,1,2,2,25.000000
2025-11-11 14:00:46.396,0.9765812493388484,0.5018965418476152,0.813013438604502,1.641595570153968,1.182264540949608,0.4263487378896146,0.5749398856781787,1.25067620728324,0.9687976938662132,0.609287478595943,0.3656130357765173,0.8897445220127506,1.355195487186624,0.628081393127934,0.390640826713327,1.078276135145637,0.8072884858771801,0.3444860920437945,0.07462597137931731,0.8416144484788605,676.9230769230769,787.3260073260074,421.4652014652015,697.0695970695971,698.6813186813187,0.295654,0.211487,1.020386,-22.841644,-9.353485,-64.083710,298168.498168,134067032.967033,62427619.047619,91.040253,1,2,1,2,2,25.000000
2025-11-11 14:00:46.555,,,,,,,,,,,,,,,,,,,,,,,,,,,,,,,,,,,,,,,,,,/muse/elements/blink
2025-11-11 14:00:46.810,,,,,,,,,,,,,,,,,,,,,,,,,,,,,,,,,,,,,,,,,,/muse/elements/blink
2025-11-11 14:00:47.173,,,,,,,,,,,,,,,,,,,,,,,,,,,,,,,,,,,,,,,,,,/muse/elements/blink
2025-11-11 14:00:47.173,,,,,,,,,,,,,,,,,,,,,,,,,,,,,,,,,,,,,,,,,,/muse/elements/jaw_clench
2025-11-11 14:00:47.386,0.9765812493388484,0.5018965418476152,0.813013438604502,1.641595570153968,1.182264540949608,0.4263487378896146,0.5749398856781787,1.25067620728324,0.9687976938662132,0.609287478595943,0.3656130357765173,0.8897445220127506,1.355195487186624,0.628081393127934,0.390640826713327,1.078276135145637,0.8072884858771801,0.3444860920437945,0.07462597137931731,0.8416144484788605,821.1721611721612,883.2234432234433,1029.084249084249,852.6007326007326,665.6410256410256,-0.139221,-0.083313,0.966797,13.435822,38.699951,-57.765808,297362.637363,129133553.113553,59458021.978022,90.807549,1,2,2,2,2,25.000000
2025-11-11 14:00:47.494,,,,,,,,,,,,,,,,,,,,,,,,,,,,,,,,,,,,,,,,,,/muse/elements/jaw_clench
2025-11-11 14:00:47.622,,,,,,,,,,,,,,,,,,,,,,,,,,,,,,,,,,,,,,,,,,/muse/elements/blink
2025-11-11 14:00:48.385,0.9765812493388484,0.5018965418476152,0.813013438604502,1.641595570153968,1.182264540949608,0.4263487378896146,0.5749398856781787,1.25067620728324,0.9687976938662132,0.609287478595943,0.3656130357765173,0.8897445220127506,1.355195487186624,0.628081393127934,0.390640826713327,1.078276135145637,0.8072884858771801,0.3444860920437945,0.07462597137931731,0.8416144484788605,783.2967032967033,732.1245421245421,686.996336996337,796.1904761904763,639.8534798534798,-0.208923,-0.065308,0.907410,23.193054,-2.048645,-38.931732,295750.915751,130343956.043956,59943150.183150,82.508560,1,2,1,2,2,25.000000
2025-11-11 14:00:48.726,,,,,,,,,,,,,,,,,,,,,,,,,,,,,,,,,,,,,,,,,,/muse/elements/blink
2025-11-11 14:00:49.386,0.9765812493388484,0.5018965418476152,0.813013438604502,1.641595570153968,1.182264540949608,0.4263487378896146,0.5749398856781787,1.25067620728324,0.9687976938662132,0.609287478595943,0.3656130357765173,0.8897445220127506,1.355195487186624,0.628081393127934,0.390640826713327,1.078276135145637,0.8072884858771801,0.3444860920437945,0.07462597137931731,0.8416144484788605,792.1611721611722,781.6849816849817,1424.358974358974,799.0109890109891,733.7362637362637,-0.071655,0.013306,1.045837,-10.250702,2.145844,-37.032623,297362.637363,130775091.575092,60304175.824176,81.037804,1,2,1,2,2,25.000000
2025-11-11 14:00:50.386,0.9765812493388484,0.7512675017974052,0.813013438604502,1.196157949768372,1.182264540949608,0.52519234613503,0.5749398856781787,1.081464721095551,0.9687976938662132,0.5931031041603,0.3656130357765173,0.9033325376060133,1.355195487186624,0.6319832439995704,0.390640826713327,0.7864506050989587,0.8072884858771801,0.1944050773047964,0.07462597137931731,0.7378283498991383,812.7106227106227,757.5091575091575,593.919413919414,813.5164835164835,699.4871794871796,0.216125,0.042297,0.803650,-9.316101,-8.179626,-15.723724,306227.106227,132896117.216117,61657216.117216,83.661362,1,1,1,2,1,25.000000
2025-11-11 14:00:50.729,,,,,,,,,,,,,,,,,,,,,,,,,,,,,,,,,,,,,,,,,,/muse/elements/blink
2025-11-11 14:00:51.074,,,,,,,,,,,,,,,,,,,,,,,,,,,,,,,,,,,,,,,,,,/muse/elements/blink
2025-11-11 14:00:51.386,0.9765812493388484,1.162865809865439,0.813013438604502,1.196157949768372,1.182264540949608,0.8771499480438599,0.5749398856781787,1.081464721095551,0.9687976938662132,0.7609502086273568,0.3656130357765173,0.9033325376060133,1.355195487186624,0.5880655639378558,0.390640826713327,0.7864506050989587,0.8072884858771801,0.2532988150073457,0.07462597137931731,0.7378283498991383,506.4835164835165,1224.102564102564,1143.919413919414,525.4212454212454,762.7472527472528,0.510803,0.112976,0.789062,25.017395,23.888397,40.756073,377142.857143,132996043.956044,61890109.890110,83.661362,1,1,1,2,1,25.000000
2025-11-11 14:00:51.566,,,,,,,,,,,,,,,,,,,,,,,,,,,,,,,,,,,,,,,,,,/muse/elements/blink
2025-11-11 14:00:51.758,,,,,,,,,,,,,,,,,,,,,,,,,,,,,,,,,,,,,,,,,,/muse/elements/jaw_clench
2025-11-11 14:00:52.387,0.9765812493388484,1.42958864666523,0.813013438604502,1.196157949768372,1.182264540949608,1.12261935793371,0.5749398856781787,1.081464721095551,0.9687976938662132,0.7484554315049967,0.3656130357765173,0.9033325376060133,1.355195487186624,0.4694811082026337,0.390640826713327,0.7864506050989587,0.8072884858771801,0.2681509551169115,0.07462597137931731,0.7378283498991383,736.959706959707,747.032967032967,674.1025641025641,758.3150183150184,815.934065934066,0.148071,-0.027710,0.955139,13.009644,0.500946,47.784271,294945.054945,130863736.263736,60230036.630037,85.342888,1,1,1,4,1,25.000000
2025-11-11 14:00:52.655,,,,,,,,,,,,,,,,,,,,,,,,,,,,,,,,,,,,,,,,,,/muse/elements/blink
2025-11-11 14:00:53.386,0.9765812493388484,1.42958864666523,0.813013438604502,1.196157949768372,1.182264540949608,1.12261935793371,0.5749398856781787,1.081464721095551,0.9687976938662132,0.7484554315049967,0.3656130357765173,0.9033325376060133,1.355195487186624,0.4694811082026337,0.390640826713327,0.7864506050989587,0.8072884858771801,0.2681509551169115,0.07462597137931731,0.7378283498991383,824.3956043956044,731.3186813186813,554.8351648351648,808.2783882783883,598.3516483516484,0.389465,-0.101746,1.087402,22.826691,-1.966400,107.464142,297362.637363,131623663.003663,60909377.289377,91.283577,1,2,1,2,2,25.000000
2025-11-11 14:00:54.386,0.9765812493388484,1.42958864666523,0.813013438604502,1.273197411376347,1.182264540949608,1.12261935793371,0.5749398856781787,0.8670199205785348,0.9687976938662132,0.7484554315049967,0.3656130357765173,0.9014261439937442,1.355195487186624,0.4694811082026337,0.390640826713327,0.8528427365420966,0.8072884858771801,0.2681509551169115,0.07462597137931731,0.3977076204808409,796.5934065934066,1008.131868131868,911.0256410256411,813.1135531135532,956.1538461538462,0.168884,0.059998,0.936462,-7.364655,-14.706879,20.852814,298168.498168,131662344.322344,61143882.783883,92.034836,1,1,1,2,1,25.000000
2025-11-11 14:00:55.386,1.156209353393253,1.42958864666523,0.813013438604502,1.261197118210854,0.9848474348951951,1.12261935793371,0.5749398856781787,1.025440647675276,1.18958421036458,0.7484554315049967,0.3656130357765173,1.185343086206004,1.306035272724676,0.4694811082026337,0.390640826713327,1.154969322271266,0.5151288667954635,0.2681509551169115,0.07462597137931731,0.3180853987103615,786.5201465201466,739.3772893772893,500.4395604395605,774.4322344322345,664.8351648351648,0.485352,0.193115,0.851013,-36.621399,-18.819122,-60.666809,296556.776557,133811575.091575,62290622.710623,92.051071,1,1,1,4,1,25.000000
2025-11-11 14:00:56.111,,,,,,,,,,,,,,,,,,,,,,,,,,,,,,,,,,,,,,,,,,/muse/elements/blink
2025-11-11 14:00:56.386,1.519561886515781,1.42958864666523,0.813013438604502,1.408262689064711,1.196006827020067,1.12261935793371,0.5749398856781787,1.18627861878845,1.282807020550574,0.7484554315049967,0.3656130357765173,1.159475948215844,1.244540890933248,0.4694811082026337,0.390640826713327,1.377398494205101,0.480735958486135,0.2681509551169115,0.07462597137931731,0.4383121553247417,785.3113553113553,743.4065934065934,720.8424908424909,803.4432234432235,667.2527472527473,0.217651,-0.027466,1.613708,-39.858856,12.546082,-88.091736,298168.498168,134216923.076923,62221318.681319,91.844978,1,1,1,4,1,25.000000
2025-11-11 14:00:57.262,,,,,,,,,,,,,,,,,,,,,,,,,,,,,,,,,,,,,,,,,,/muse/elements/blink
2025-11-11 14:00:57.386,1.598601788369073,1.42958864666523,0.813013438604502,1.465328521884889,1.268956715385592,1.12261935793371,0.5749398856781787,1.275773200497728,1.282807020550574,0.7484554315049967,0.3656130357765173,1.159475948215844,1.244002981439186,0.4694811082026337,0.390640826713327,1.367057448687815,0.5143928205296319,0.2681509551169115,0.07462597137931731,0.5117098945171836,795.7875457875458,840.5128205128206,723.2600732600732,790.1465201465202,649.92673992674,0.255249,-0.057861,0.914673,-18.250885,12.575989,-64.936066,294945.054945,134089597.069597,62028717.948718,92.895386,1,1,1,4,1,25.000000
2025-11-11 14:00:58.386,1.598601788369073,1.42958864666523,0.813013438604502,1.465328521884889,1.268956715385592,1.12261935793371,0.5749398856781787,1.275773200497728,1.282807020550574,0.7484554315049967,0.3656130357765173,1.159475948215844,1.244002981439186,0.4694811082026337,0.390640826713327,1.367057448687815,0.5143928205296319,0.2681509551169115,0.07462597137931731,0.5117098945171836,829.2307692307693,825.6043956043957,1064.945054945055,834.8717948717949,691.4285714285714,0.193054,-0.135437,1.169678,-9.660034,1.248627,-18.923798,295750.915751,133787399.267399,61727326.007326,93.801468,1,2,1,2,2,25.000000
2025-11-11 14:00:59.262,,,,,,,,,,,,,,,,,,,,,,,,,,,,,,,,,,,,,,,,,,/muse/elements/blink
2025-11-11 14:00:59.386,1.598601788369073,1.42958864666523,0.813013438604502,1.465328521884889,1.268956715385592,1.12261935793371,0.5749398856781787,1.275773200497728,1.282807020550574,0.7484554315049967,0.3656130357765173,1.159475948215844,1.244002981439186,0.4694811082026337,0.390640826713327,1.367057448687815,0.5143928205296319,0.2681509551169115,0.07462597137931731,0.5117098945171836,684.5787545787546,901.3553113553114,982.3443223443223,703.1135531135532,648.7179487179487,0.277527,0.082703,0.847656,-18.527527,-5.428162,-22.146301,303809.523810,134336190.476190,62092380.952381,97.066864,1,2,1,4,2,25.000000
2025-11-11 14:00:59.687,,,,,,,,,,,,,,,,,,,,,,,,,,,,,,,,,,,,,,,,,,/muse/elements/blink
2025-11-11 14:01:00.199,,,,,,,,,,,,,,,,,,,,,,,,,,,,,,,,,,,,,,,,,,/muse/elements/blink
2025-11-11 14:01:00.392,1.598601788369073,1.42958864666523,0.813013438604502,1.465328521884889,1.268956715385592,1.12261935793371,0.5749398856781787,1.275773200497728,1.282807020550574,0.7484554315049967,0.3656130357765173,1.159475948215844,1.244002981439186,0.4694811082026337,0.390640826713327,1.367057448687815,0.5143928205296319,0.2681509551169115,0.07462597137931731,0.5117098945171836,764.3589743589744,818.3516483516484,606.8131868131868,752.2710622710623,766.7765567765568,0.396667,0.235352,0.943298,41.114960,5.428162,68.517456,356190.476190,134342637.362637,62177802.197802,94.904442,1,2,1,4,2,25.000000
2025-11-11 14:01:01.386,1.598601788369073,1.42958864666523,0.813013438604502,1.465328521884889,1.268956715385592,1.12261935793371,0.5749398856781787,1.275773200497728,1.282807020550574,0.7484554315049967,0.3656130357765173,1.159475948215844,1.244002981439186,0.4694811082026337,0.390640826713327,1.367057448687815,0.5143928205296319,0.2681509551169115,0.07462597137931731,0.5117098945171836,763.956043956044,740.1831501831502,773.6263736263736,768.7912087912088,891.6849816849817,0.287842,-0.106873,0.875671,42.677612,10.504913,66.132355,296556.776557,133685860.805861,61962637.362637,92.188194,1,2,1,2,2,25.000000
2025-11-11 14:01:01.520,,,,,,,,,,,,,,,,,,,,,,,,,,,,,,,,,,,,,,,,,,/muse/elements/blink
2025-11-11 14:01:02.386,1.598601788369073,1.42958864666523,0.813013438604502,1.465328521884889,1.268956715385592,1.12261935793371,0.5749398856781787,1.275773200497728,1.282807020550574,0.7484554315049967,0.3656130357765173,1.159475948215844,1.244002981439186,0.4694811082026337,0.390640826713327,1.367057448687815,0.5143928205296319,0.2681509551169115,0.07462597137931731,0.5117098945171836,800.6227106227107,823.1868131868132,535.8974358974359,824.3956043956044,577.8021978021978,0.471741,-0.255188,0.805359,30.064240,-7.020721,79.313965,297362.637363,133846227.106227,62110109.890110,91.639091,1,2,1,2,2,25.000000
2025-11-11 14:01:03.387,1.09974503972267,1.42958864666523,0.813013438604502,0.8186134648435157,0.6517282445271704,1.12261935793371,0.5749398856781787,0.7010964061342937,0.7715722436984734,0.7484554315049967,0.3656130357765173,0.8120919085079918,1.108457887263144,0.4694811082026337,0.390640826713327,0.9948995206525036,0.7453260631174409,0.2681509551169115,0.07462597137931731,0.9406858349073633,807.4725274725275,799.4139194139194,1008.937728937729,787.7289377289378,1230.952380952381,0.165771,0.117615,0.973755,-9.076843,1.061707,20.845337,298168.498168,133416703.296703,61821611.721612,94.934113,1,1,1,4,1,25.000000
2025-11-11 14:01:04.035,,,,,,,,,,,,,,,,,,,,,,,,,,,,,,,,,,,,,,,,,,/muse/elements/blink
2025-11-11 14:01:04.387,1.09974503972267,1.42958864666523,0.813013438604502,1.300639975550604,0.6517282445271704,1.12261935793371,0.5749398856781787,1.354119635020602,0.7715722436984734,0.7484554315049967,0.3656130357765173,1.300080453346249,1.108457887263144,0.4694811082026337,0.390640826713327,1.027378312562153,0.7453260631174409,0.2681509551169115,0.07462597137931731,0.650110250951263,774.8351648351648,757.1062271062272,245.3846153846154,767.1794871794872,666.0439560439561,0.488037,0.224060,0.916809,-28.157654,-27.245483,-41.997223,296556.776557,134995384.615385,62611355.311355,95.582413,1,1,1,4,1,25.000000
2025-11-11 14:01:04.653,,,,,,,,,,,,,,,,,,,,,,,,,,,,,,,,,,,,,,,,,,/muse/elements/blink
2025-11-11 14:01:05.164,,,,,,,,,,,,,,,,,,,,,,,,,,,,,,,,,,,,,,,,,,/muse/elements/blink
2025-11-11 14:01:05.270,,,,,,,,,,,,,,,,,,,,,,,,,,,,,,,,,,,,,,,,,,/muse/elements/jaw_clench
2025-11-11 14:01:05.356,,,,,,,,,,,,,,,,,,,,,,,,,,,,,,,,,,,,,,,,,,/muse/elements/blink
2025-11-11 14:01:05.387,1.09974503972267,1.42958864666523,0.813013438604502,1.371358091493517,0.6517282445271704,1.12261935793371,0.5749398856781787,1.468496914912124,0.7715722436984734,0.7484554315049967,0.3656130357765173,1.300080453346249,1.108457887263144,0.4694811082026337,0.390640826713327,1.192920840866499,0.7453260631174409,0.2681509551169115,0.07462597137931731,0.6682411870659614,836.0805860805862,0,886.4468864468864,893.6996336996338,660.4029304029305,0.285156,-0.104248,0.965027,-11.947937,17.839661,-67.104340,295750.915751,133164468.864469,60956117.216117,93.153206,1,1,1,4,1,25.000000
2025-11-11 14:01:05.695,,,,,,,,,,,,,,,,,,,,,,,,,,,,,,,,,,,,,,,,,,/muse/elements/blink
2025-11-11 14:01:06.386,1.09974503972267,1.42958864666523,0.813013438604502,1.371358091493517,0.6517282445271704,1.12261935793371,0.5749398856781787,1.468496914912124,0.7715722436984734,0.7484554315049967,0.3656130357765173,1.300080453346249,1.108457887263144,0.4694811082026337,0.390640826713327,1.192920840866499,0.7453260631174409,0.2681509551169115,0.07462597137931731,0.6682411870659614,776.0439560439561,735.7509157509157,573.7728937728938,788.5347985347986,738.974358974359,0.473328,-0.077271,0.922852,-14.347992,1.173859,-81.773834,295750.915751,136339560.439560,62515457.875458,90.535049,1,1,1,4,1,25.000000
2025-11-11 14:01:07.386,1.09974503972267,1.42958864666523,0.813013438604502,1.755893116853483,0.6517282445271704,1.12261935793371,0.5749398856781787,1.372399563360008,0.7715722436984734,0.7484554315049967,0.3656130357765173,1.121171207960546,1.108457887263144,0.4694811082026337,0.390640826713327,0.8959306184070646,0.7453260631174409,0.2681509551169115,0.07462597137931731,0.2169159992512961,823.5897435897436,809.4871794871796,883.6263736263736,797.8021978021978,718.4249084249085,0.006165,-0.091431,1.711731,-27.738953,18.355560,-38.901825,295750.915751,134608571.428571,61317142.857143,89.881149,1,1,1,4,1,25.000000
2025-11-11 14:01:08.387,1.588151510131147,1.42958864666523,0.813013438604502,1.473050749987378,1.594325207119687,1.12261935793371,0.5749398856781787,1.313092321792931,1.107550329038973,0.7484554315049967,0.3656130357765173,1.259233703202463,0.8660762518608878,0.4694811082026337,0.390640826713327,0.8793517428414088,0.3613254930153257,0.2681509551169115,0.07462597137931731,0.3368120086949339,791.7582417582418,768.3882783882784,618.901098901099,784.5054945054945,560.8791208791209,0.223572,0.060547,0.847412,-9.630127,-12.478790,-17.622833,302197.802198,135109816.849817,61765201.465201,89.847275,1,1,1,4,1,25.000000
2025-11-11 14:01:08.909,,,,,,,,,,,,,,,,,,,,,,,,,,,,,,,,,,,,,,,,,,/muse/elements/blink
2025-11-11 14:01:09.389,1.613209411826277,1.42958864666523,0.813013438604502,1.350879587167255,1.514353824996303,1.12261935793371,0.5749398856781787,1.502819390072676,1.32040161044056,0.7484554315049967,0.3656130357765173,1.253290917990834,1.068030231004509,0.4694811082026337,0.390640826713327,1.024638450311417,0.2964010370100526,0.2681509551169115,0.07462597137931731,0.3847608315598078,794.1758241758242,786.5201465201466,1533.553113553114,759.5238095238095,804.2490842490843,0.478760,0.135376,0.896179,24.449158,-18.146210,33.301697,342490.842491,134610989.010989,61387252.747253,89.936073,1,1,1,4,1,25.000000
2025-11-11 14:01:09.716,,,,,,,,,,,,,,,,,,,,,,,,,,,,,,,,,,,,,,,,,,/muse/elements/blink
2025-11-11 14:01:10.331,,,,,,,,,,,,,,,,,,,,,,,,,,,,,,,,,,,,,,,,,,/muse/elements/blink
2025-11-11 14:01:10.386,1.635485835074135,1.42958864666523,0.813013438604502,1.382380479972932,1.395859371590252,1.12261935793371,0.5749398856781787,1.53065165284438,1.205375251245667,0.7484554315049967,0.3656130357765173,1.155522630166952,1.176522783922676,0.4694811082026337,0.390640826713327,1.118268277350859,0.2271701305234851,0.2681509551169115,0.07462597137931731,0.2763627318857038,803.040293040293,814.3223443223443,743.8095238095239,801.8315018315019,849.7802197802198,0.361328,-0.106201,0.871643,42.700043,3.043060,77.900848,297362.637363,135503882.783883,61799853.479853,92.440262,1,1,1,4,1,25.000000
2025-11-11 14:01:11.075,,,,,,,,,,,,,,,,,,,,,,,,,,,,,,,,,,,,,,,,,,/muse/elements/blink
2025-11-11 14:01:11.387,1.635485835074135,1.42958864666523,0.813013438604502,1.382380479972932,1.395859371590252,1.12261935793371,0.5749398856781787,1.53065165284438,1.205375251245667,0.7484554315049967,0.3656130357765173,1.155522630166952,1.176522783922676,0.4694811082026337,0.390640826713327,1.118268277350859,0.2271701305234851,0.2681509551169115,0.07462597137931731,0.2763627318857038,791.7582417582418,755.8974358974359,236.9230769230769,802.2344322344322,738.5714285714286,0.394836,-0.189392,0.893982,4.717865,1.084137,79.575653,298168.498168,135195238.095238,61619340.659341,92.201302,1,2,1,4,2,25.000000
2025-11-11 14:01:12.387,1.635485835074135,1.42958864666523,0.813013438604502,1.382380479972932,1.395859371590252,1.12261935793371,0.5749398856781787,1.53065165284438,1.205375251245667,0.7484554315049967,0.3656130357765173,1.155522630166952,1.176522783922676,0.4694811082026337,0.390640826713327,1.118268277350859,0.2271701305234851,0.2681509551169115,0.07462597137931731,0.2763627318857038,805.4578754578755,805.4578754578755,768.7912087912088,785.7142857142858,570.1465201465202,0.249390,0.049194,0.989807,-0.919647,10.549774,20.718231,298974.358974,135420073.260073,61570183.150183,93.673935,1,2,1,4,2,25.000000
2025-11-11 14:01:12.906,,,,,,,,,,,,,,,,,,,,,,,,,,,,,,,,,,,,,,,,,,/muse/elements/blink
2025-11-11 14:01:13.387,1.191601372809923,1.42958864666523,0.813013438604502,0.5028216878368462,1.128640563061136,1.12261935793371,0.5749398856781787,0.5796588976358008,1.242853479126059,0.7484554315049967,0.3656130357765173,0.8069968270138107,1.083769218977463,0.4694811082026337,0.390640826713327,0.8482214781641191,0.3575808722378025,0.2681509551169115,0.07462597137931731,0.4127308067759714,648.7179487179487,793.7728937728938,572.5641025641025,643.8827838827839,759.5238095238095,0.458618,0.140442,0.864746,-26.707153,-10.093689,-37.847595,298168.498168,136898021.978022,62431648.351648,93.440392,1,1,1,4,1,25.000000
2025-11-11 14:01:13.611,,,,,,,,,,,,,,,,,,,,,,,,,,,,,,,,,,,,,,,,,,/muse/elements/blink
2025-11-11 14:01:14.388,1.1478736869883,1.42958864666523,0.813013438604502,0.5394986240050149,1.138219574531729,1.12261935793371,0.5749398856781787,0.5468623279033683,1.240982449806321,0.7484554315049967,0.3656130357765173,0.7156633361319489,1.124219958217621,0.4694811082026337,0.390640826713327,0.8589988296121185,0.363902418733519,0.2681509551169115,0.07462597137931731,0.3895390705618397,794.5787545787546,739.7802197802198,813.1135531135532,805.8608058608058,675.3113553113553,0.294861,-0.084045,0.939697,-6.788940,8.605804,-57.892914,296556.776557,136493479.853480,61935238.095238,91.800934,1,1,1,4,1,25.000000
2025-11-11 14:01:14.740,,,,,,,,,,,,,,,,,,,,,,,,,,,,,,,,,,,,,,,,,,/muse/elements/blink
2025-11-11 14:01:15.390,1.1478736869883,1.42958864666523,0.813013438604502,0.5394986240050149,1.138219574531729,1.12261935793371,0.5749398856781787,0.5468623279033683,1.240982449806321,0.7484554315049967,0.3656130357765173,0.7156633361319489,1.124219958217621,0.4694811082026337,0.390640826713327,0.8589988296121185,0.363902418733519,0.2681509551169115,0.07462597137931731,0.3895390705618397,726.8864468864469,821.5750915750916,1340.952380952381,745.8241758241759,570.952380952381,0.290955,-0.166870,0.939941,-20.464020,9.645081,-68.981018,295750.915751,135953553.113553,61501684.981685,94.761475,1,2,1,4,2,25.000000
2025-11-11 14:01:15.635,,,,,,,,,,,,,,,,,,,,,,,,,,,,,,,,,,,,,,,,,,/muse/elements/blink
2025-11-11 14:01:16.388,1.1478736869883,1.42958864666523,0.813013438604502,0.5394986240050149,1.138219574531729,1.12261935793371,0.5749398856781787,0.5468623279033683,1.240982449806321,0.7484554315049967,0.3656130357765173,0.7156633361319489,1.124219958217621,0.4694811082026337,0.390640826713327,0.8589988296121185,0.363902418733519,0.2681509551169115,0.07462597137931731,0.3895390705618397,796.996336996337,873.1501831501831,1101.208791208791,800.6227106227107,666.4468864468864,0.094849,-0.051758,1.081604,-25.929565,0.119629,-27.148285,295750.915751,134215311.355311,60494358.974359,93.415680,1,2,1,2,2,25.000000
2025-11-11 14:01:16.764,,,,,,,,,,,,,,,,,,,,,,,,,,,,,,,,,,,,,,,,,,/muse/elements/blink
2025-11-11 14:01:17.386,1.1478736869883,1.42958864666523,0.813013438604502,0.5394986240050149,1.138219574531729,1.12261935793371,0.5749398856781787,0.5468623279033683,1.240982449806321,0.7484554315049967,0.3656130357765173,0.7156633361319489,1.124219958217621,0.4694811082026337,0.390640826713327,0.8589988296121185,0.363902418733519,0.2681509551169115,0.07462597137931731,0.3895390705618397,788.9377289377289,713.5897435897436,770,788.9377289377289,647.9120879120879,0.235535,0.085632,0.821838,-9.570312,-6.960907,-14.093781,301391.941392,135924542.124542,61468644.688645,93.001709,1,2,1,4,2,25.000000
2025-11-11 14:01:18.394,1.1478736869883,1.42958864666523,0.813013438604502,0.5394986240050149,1.138219574531729,1.12261935793371,0.5749398856781787,0.5468623279033683,1.240982449806321,0.7484554315049967,0.3656130357765173,0.7156633361319489,1.124219958217621,0.4694811082026337,0.390640826713327,0.8589988296121185,0.363902418733519,0.2681509551169115,0.07462597137931731,0.3895390705618397,577.3992673992674,979.92673992674,1212.417582417582,567.7289377289377,666.8498168498169,0.457703,0.161987,0.745483,28.224945,-5.405731,26.437988,369890.109890,135502271.062271,61052820.512821,90.710320,1,2,1,4,2,25.000000
2025-11-11 14:01:18.577,,,,,,,,,,,,,,,,,,,,,,,,,,,,,,,,,,,,,,,,,,/muse/elements/blink
2025-11-11 14:01:19.387,1.1478736869883,1.42958864666523,0.813013438604502,0.5394986240050149,1.138219574531729,1.12261935793371,0.5749398856781787,0.5468623279033683,1.240982449806321,0.7484554315049967,0.3656130357765173,0.7156633361319489,1.124219958217621,0.4694811082026337,0.390640826713327,0.8589988296121185,0.363902418733519,0.2681509551169115,0.07462597137931731,0.3895390705618397,620.5128205128206,848.1684981684982,801.025641025641,662.4175824175825,788.1318681318681,0.376221,-0.131470,0.857605,49.900208,3.409424,89.908600,297362.637363,136154212.454212,61377582.417582,94.387199,1,2,1,2,2,25.000000
2025-11-11 14:01:19.494,,,,,,,,,,,,,,,,,,,,,,,,,,,,,,,,,,,,,,,,,,/muse/elements/blink
2025-11-11 14:01:20.387,1.1478736869883,1.42958864666523,0.813013438604502,0.5394986240050149,1.138219574531729,1.12261935793371,0.5749398856781787,0.5468623279033683,1.240982449806321,0.7484554315049967,0.3656130357765173,0.7156633361319489,1.124219958217621,0.4694811082026337,0.390640826713327,0.8589988296121185,0.363902418733519,0.2681509551169115,0.07462597137931731,0.3895390705618397,767.5824175824176,724.4688644688645,130.952380952381,771.6117216117216,804.2490842490843,0.383789,-0.218140,0.878235,2.609406,14.490051,60.382690,298168.498168,136184029.304029,61566959.706960,94.649139,1,2,1,2,2,25.000000
2025-11-11 14:01:21.196,,,,,,,,,,,,,,,,,,,,,,,,,,,,,,,,,,,,,,,,,,/muse/elements/blink
2025-11-11 14:01:21.387,1.011959818581184,1.42958864666523,0.813013438604502,0.9917538517631213,1.257336694877785,1.12261935793371,0.5749398856781787,0.9560460453494689,0.9660623352191897,0.7484554315049967,0.3656130357765173,0.9858872566956344,0.9570787086623769,0.4694811082026337,0.390640826713327,0.9504958837017035,0.4794626567419165,0.2681509551169115,0.07462597137931731,0.5119192150727845,792.967032967033,805.8608058608058,1141.501831501831,784.9084249084249,539.1208791208792,0.244690,0.056580,0.928223,-11.798401,-25.421143,21.002350,297362.637363,134980879.120879,61095531.135531,94.382858,1,1,4,4,1,25.000000
2025-11-11 14:01:22.387,1.011959818581184,1.42958864666523,0.813013438604502,1.07569599272837,1.257336694877785,1.12261935793371,0.5749398856781787,0.9047024473102022,0.9660623352191897,0.7484554315049967,0.3656130357765173,0.9600427565906846,0.9570787086623769,0.4694811082026337,0.390640826713327,0.9730548874416325,0.4794626567419165,0.2681509551169115,0.07462597137931731,0.4499110829169962,799.4139194139194,724.4688644688645,0,806.6666666666667,799.0109890109891,0.487915,0.316467,0.845642,-7.125397,-27.910919,-26.624908,295750.915751,136621611.721612,62197948.717949,94.382858,1,1,1,4,1,25.000000
2025-11-11 14:01:23.137,,,,,,,,,,,,,,,,,,,,,,,,,,,,,,,,,,,,,,,,,,/muse/elements/blink
2025-11-11 14:01:23.387,1.719222465405111,1.42958864666523,0.813013438604502,1.115780337215623,1.511546995373258,1.12261935793371,0.5749398856781787,0.9826267713961788,1.595612479829756,0.7484554315049967,0.3656130357765173,0.903397914921371,0.854632412983738,0.4694811082026337,0.390640826713327,0.9628133919065381,0.2530402879334439,0.2681509551169115,0.07462597137931731,0.365727803807687,796.5934065934066,850.5860805860806,835.2747252747253,777.6556776556777,592.3076923076924,0.175354,-0.071472,0.979797,-5.884247,21.077118,-61.698608,298974.358974,136582930.402930,61948937.728938,93.326759,1,1,1,4,1,25.000000
2025-11-11 14:01:23.645,,,,,,,,,,,,,,,,,,,,,,,,,,,,,,,,,,,,,,,,,,/muse/elements/blink
2025-11-11 14:01:24.387,1.968190362063613,1.42958864666523,0.813013438604502,1.115780337215623,1.818168641284394,1.12261935793371,0.5749398856781787,0.9826267713961788,1.638694130654913,0.7484554315049967,0.3656130357765173,0.903397914921371,0.9719333586917149,0.4694811082026337,0.390640826713327,0.9628133919065381,0.3039191923607329,0.2681509551169115,0.07462597137931731,0.365727803807687,784.5054945054945,826.8131868131868,756.7032967032967,795.3846153846154,653.5531135531136,0.302979,-0.090088,0.860474,-14.146118,15.155487,-92.256317,296556.776557,136559560.439560,61849010.989011,91.255501,1,1,1,4,1,25.000000
2025-11-11 14:01:24.760,,,,,,,,,,,,,,,,,,,,,,,,,,,,,,,,,,,,,,,,,,/muse/elements/blink
2025-11-11 14:01:25.191,,,,,,,,,,,,,,,,,,,,,,,,,,,,,,,,,,,,,,,,,,/muse/elements/blink
2025-11-11 14:01:25.397,1.968190362063613,1.42958864666523,0.813013438604502,1.115780337215623,1.818168641284394,1.12261935793371,0.5749398856781787,0.9826267713961788,1.638694130654913,0.7484554315049967,0.3656130357765173,0.903397914921371,0.9719333586917149,0.4694811082026337,0.390640826713327,0.9628133919065381,0.3039191923607329,0.2681509551169115,0.07462597137931731,0.365727803807687,757.1062271062272,933.992673992674,1057.289377289377,763.5531135531136,1085.897435897436,0.001221,-0.033203,1.009644,-14.071350,10.138550,-46.632843,296556.776557,134673040.293040,60333186.813187,89.748680,1,1,1,4,1,25.000000
2025-11-11 14:01:26.304,,,,,,,,,,,,,,,,,,,,,,,,,,,,,,,,,,,,,,,,,,/muse/elements/blink
2025-11-11 14:01:26.392,1.968190362063613,1.42958864666523,0.813013438604502,1.115780337215623,1.818168641284394,1.12261935793371,0.5749398856781787,0.9826267713961788,1.638694130654913,0.7484554315049967,0.3656130357765173,0.903397914921371,0.9719333586917149,0.4694811082026337,0.390640826713327,0.9628133919065381,0.3039191923607329,0.2681509551169115,0.07462597137931731,0.365727803807687,759.5238095238095,881.2087912087912,705.1282051282052,776.8498168498169,611.6483516483516,0.158020,0.103943,0.884033,0.957031,-28.897858,-8.830109,307032.967033,134757655.677656,60442783.882784,94.049026,1,2,1,4,2,25.000000
2025-11-11 14:01:27.386,1.968190362063613,1.42958864666523,0.813013438604502,1.115780337215623,1.818168641284394,1.12261935793371,0.5749398856781787,0.9826267713961788,1.638694130654913,0.7484554315049967,0.3656130357765173,0.903397914921371,0.9719333586917149,0.4694811082026337,0.390640826713327,0.9628133919065381,0.3039191923607329,0.2681509551169115,0.07462597137931731,0.365727803807687,801.4285714285714,817.1428571428571,950.5128205128206,782.4908424908425,501.2454212454213,0.081909,0.055298,1.126465,5.831909,-24.381866,36.703644,365860.805861,134603736.263736,60324322.344322,95.776810,1,2,1,2,2,25.000000
2025-11-11 14:01:28.034,,,,,,,,,,,,,,,,,,,,,,,,,,,,,,,,,,,,,,,,,,/muse/elements/blink
2025-11-11 14:01:28.387,1.968190362063613,1.42958864666523,0.813013438604502,1.115780337215623,1.818168641284394,1.12261935793371,0.5749398856781787,0.9826267713961788,1.638694130654913,0.7484554315049967,0.3656130357765173,0.903397914921371,0.9719333586917149,0.4694811082026337,0.390640826713327,0.9628133919065381,0.3039191923607329,0.2681509551169115,0.07462597137931731,0.365727803807687,793.3699633699634,776.8498168498169,785.7142857142858,801.025641025641,755.4945054945055,0.304321,-0.088196,0.893555,38.004608,3.342133,94.222717,296556.776557,135645714.285714,61061684.981685,93.103470,1,2,1,2,2,25.000000
2025-11-11 14:01:29.356,,,,,,,,,,,,,,,,,,,,,,,,,,,,,,,,,,,,,,,,,,/muse/elements/blink
2025-11-11 14:01:29.387,1.968190362063613,1.42958864666523,0.813013438604502,1.115780337215623,1.818168641284394,1.12261935793371,0.5749398856781787,0.9826267713961788,1.638694130654913,0.7484554315049967,0.3656130357765173,0.903397914921371,0.9719333586917149,0.4694811082026337,0.390640826713327,0.9628133919065381,0.3039191923607329,0.2681509551169115,0.07462597137931731,0.365727803807687,789.7435897435897,777.2527472527473,683.3699633699634,769.1941391941392,807.0695970695971,0.218933,-0.154419,1.081726,20.718231,14.318085,76.442871,298168.498168,135530476.190476,60943223.443223,93.343758,1,2,1,2,2,25.000000
2025-11-11 14:01:30.387,1.968190362063613,1.427804274496353,0.813013438604502,1.115780337215623,1.818168641284394,1.158763789564472,0.5749398856781787,0.9826267713961788,1.638694130654913,1.041240703711108,0.3656130357765173,0.903397914921371,0.9719333586917149,0.6301398803029169,0.390640826713327,0.9628133919065381,0.3039191923607329,0.1392117611920275,0.07462597137931731,0.365727803807687,796.1904761904763,850.5860805860806,806.6666666666667,794.1758241758242,558.4615384615385,0.134277,0.088013,0.944641,-7.065582,-2.130890,26.595001,298168.498168,135737582.417582,60859413.919414,94.694214,1,2,1,4,2,25.000000
2025-11-11 14:01:30.444,,,,,,,,,,,,,,,,,,,,,,,,,,,,,,,,,,,,,,,,,,/muse/elements/blink
2025-11-11 14:01:31.195,,,,,,,,,,,,,,,,,,,,,,,,,,,,,,,,,,,,,,,,,,/muse/elements/blink
2025-11-11 14:01:31.387,1.968190362063613,1.410733762508286,0.813013438604502,1.115780337215623,1.818168641284394,1.143135667064078,0.5749398856781787,0.9826267713961788,1.638694130654913,0.9834310476938311,0.3656130357765173,0.903397914921371,0.9719333586917149,0.6404769790300489,0.390640826713327,0.9628133919065381,0.3039191923607329,0.09734191809137394,0.07462597137931731,0.365727803807687,702.7106227106227,758.7179487179487,430.7326007326008,701.9047619047619,758.7179487179487,0.346863,0.208496,0.954529,-42.221527,-22.826691,-65.930481,303003.663004,136510402.930403,61308278.388278,94.694214,1,2,1,4,2,25.000000
2025-11-11 14:01:31.557,,,,,,,,,,,,,,,,,,,,,,,,,,,,,,,,,,,,,,,,,,/muse/elements/blink
2025-11-11 14:01:32.386,1.968190362063613,1.410733762508286,0.813013438604502,1.115780337215623,1.818168641284394,1.143135667064078,0.5749398856781787,0.9826267713961788,1.638694130654913,0.9834310476938311,0.3656130357765173,0.903397914921371,0.9719333586917149,0.6404769790300489,0.390640826713327,0.9628133919065381,0.3039191923607329,0.09734191809137394,0.07462597137931731,0.365727803807687,814.3223443223443,813.5164835164835,828.4249084249085,817.948717948718,718.8278388278388,0.380859,-0.105225,0.824707,2.093506,22.348175,-40.486908,298974.358974,137337216.117216,61641904.761905,94.694214,1,2,1,4,2,25.000000
2025-11-11 14:01:32.787,,,,,,,,,,,,,,,,,,,,,,,,,,,,,,,,,,,,,,,,,,/muse/elements/blink
2025-11-11 14:01:33.394,1.968190362063613,1.410733762508286,0.813013438604502,1.115780337215623,1.818168641284394,1.143135667064078,0.5749398856781787,0.9826267713961788,1.638694130654913,0.9834310476938311,0.3656130357765173,0.903397914921371,0.9719333586917149,0.6404769790300489,0.390640826713327,0.9628133919065381,0.3039191923607329,0.09734191809137394,0.07462597137931731,0.365727803807687,750.6593406593407,845.3479853479854,813.1135531135532,754.2857142857143,566.5201465201466,0.235107,-0.104919,0.936462,-13.099365,18.116302,-52.337646,295750.915751,136619194.139194,61023809.523810,94.546532,1,2,1,4,2,25.000000
2025-11-11 14:01:34.104,,,,,,,,,,,,,,,,,,,,,,,,,,,,,,,,,,,,,,,,,,/muse/elements/blink
2025-11-11 14:01:34.393,1.968190362063613,1.410733762508286,0.813013438604502,1.115780337215623,1.818168641284394,1.143135667064078,0.5749398856781787,0.9826267713961788,1.638694130654913,0.9834310476938311,0.3656130357765173,0.903397914921371,0.9719333586917149,0.6404769790300489,0.390640826713327,0.9628133919065381,0.3039191923607329,0.09734191809137394,0.07462597137931731,0.365727803807687,816.7399267399268,843.7362637362637,853.8095238095239,807.0695970695971,756.3003663003664,-0.335327,-0.083435,1.635193,-7.588959,3.117828,-48.419800,294945.054945,134021098.901099,59386300.366300,92.041855,1,2,1,2,2,25.000000
2025-11-11 14:01:35.387,1.968190362063613,1.410733762508286,0.813013438604502,1.115780337215623,1.818168641284394,1.143135667064078,0.5749398856781787,0.9826267713961788,1.638694130654913,0.9834310476938311,0.3656130357765173,0.903397914921371,0.9719333586917149,0.6404769790300489,0.390640826713327,0.9628133919065381,0.3039191923607329,0.09734191809137394,0.07462597137931731,0.365727803807687,719.6336996336996,805.8608058608058,666.8498168498169,722.0512820512821,670.8791208791209,0.125244,0.076904,0.860229,-14.490051,-6.310425,-20.404205,304615.384615,135261318.681319,60131721.611722,94.309471,1,2,1,4,2,25.000000
2025-11-11 14:01:35.558,,,,,,,,,,,,,,,,,,,,,,,,,,,,,,,,,,,,,,,,,,/muse/elements/blink
2025-11-11 14:01:36.387,1.968190362063613,1.410733762508286,0.813013438604502,1.115780337215623,1.818168641284394,1.143135667064078,0.5749398856781787,0.9826267713961788,1.638694130654913,0.9834310476938311,0.3656130357765173,0.903397914921371,0.9719333586917149,0.6404769790300489,0.390640826713327,0.9628133919065381,0.3039191923607329,0.09734191809137394,0.07462597137931731,0.365727803807687,769.1941391941392,819.96336996337,1139.89010989011,758.7179487179487,594.3223443223443,0.006836,0.037415,0.974854,22.766876,10.475006,51.485291,365860.805861,135023589.743590,59919780.219780,92.979439,1,2,1,4,2,25.000000
2025-11-11 14:01:37.050,,,,,,,,,,,,,,,,,,,,,,,,,,,,,,,,,,,,,,,,,,/muse/elements/blink
2025-11-11 14:01:37.387,1.968190362063613,1.410733762508286,0.813013438604502,1.390414056831971,1.818168641284394,1.143135667064078,0.5749398856781787,1.801370525912924,1.638694130654913,0.9834310476938311,0.3656130357765173,1.533941544908423,0.9719333586917149,0.6404769790300489,0.390640826713327,1.108324453373247,0.3039191923607329,0.09734191809137394,0.07462597137931731,0.5015507739665257,798.2051282051282,801.8315018315019,846.5567765567765,811.5018315018315,931.1721611721612,0.182556,-0.112488,0.913635,36.367188,1.256104,91.807709,297362.637363,136390329.670330,60829597.069597,92.529068,1,1,1,2,1,25.000000
2025-11-11 14:01:38.387,1.968190362063613,1.410733762508286,0.813013438604502,1.390414056831971,1.818168641284394,1.143135667064078,0.5749398856781787,1.801370525912924,1.638694130654913,0.9834310476938311,0.3656130357765173,1.533941544908423,0.9719333586917149,0.6404769790300489,0.390640826713327,1.108324453373247,0.3039191923607329,0.09734191809137394,0.07462597137931731,0.5015507739665257,786.1172161172161,786.9230769230769,749.4505494505495,769.5970695970697,710.7692307692308,0.223572,0.043640,0.877136,-1.801910,-21.578064,56.375122,297362.637363,135945494.505495,60635384.615385,93.157700,1,1,1,2,1,25.000000
2025-11-11 14:01:39.387,0.9693600167820182,1.410733762508286,0.813013438604502,1.064915683305956,0.9006280225701379,1.143135667064078,0.5749398856781787,0.7491304984653374,1.065472753419258,0.9834310476938311,0.3656130357765173,0.8492547464018367,0.7686062447245353,0.6404769790300489,0.390640826713327,0.8803563600744343,0.361517184860166,0.09734191809137394,0.07462597137931731,0.3184008263838419,805.8608058608058,834.0659340659341,761.941391941392,795.7875457875458,731.7216117216118,0.212463,-0.003906,0.920959,-11.925507,-17.166748,19.155579,297362.637363,136307326.007326,60898095.238095,94.478043,1,1,1,2,1,25.000000
2025-11-11 14:01:39.730,,,,,,,,,,,,,,,,,,,,,,,,,,,,,,,,,,,,,,,,,,/muse/elements/blink
2025-11-11 14:01:40.387,1.122036738578917,1.410733762508286,0.813013438604502,1.123018498273521,1.029825801292048,1.143135667064078,0.5749398856781787,0.7157893669320151,1.044413364479592,0.9834310476938311,0.3656130357765173,0.6971936807484183,0.7169221110692554,0.6404769790300489,0.390640826713327,0.9811731311417634,0.3447588434059102,0.09734191809137394,0.07462597137931731,0.2300044101426627,755.0915750915751,751.8681318681319,257.4725274725275,767.1794871794872,847.3626373626374,0.417114,0.294495,0.953674,-22.684631,-18.019104,-40.546722,298974.358974,137409743.589744,61636263.736264,94.792160,1,1,1,2,1,25.000000
2025-11-11 14:01:40.602,,,,,,,,,,,,,,,,,,,,,,,,,,,,,,,,,,,,,,,,,,/muse/elements/blink
2025-11-11 14:01:41.221,,,,,,,,,,,,,,,,,,,,,,,,,,,,,,,,,,,,,,,,,,/muse/elements/blink
2025-11-11 14:01:41.387,1.195362703835044,1.410733762508286,0.813013438604502,1.099270802209194,1.042432987251989,1.143135667064078,0.5749398856781787,0.7395429638524258,0.939581806697002,0.9834310476938311,0.3656130357765173,0.6505037362651154,0.661334530227662,0.6404769790300489,0.390640826713327,0.8692050202165007,0.309538612249747,0.09734191809137394,0.07462597137931731,0.1726279807047618,761.1355311355312,819.5604395604396,1259.157509157509,746.6300366300367,682.967032967033,0.262207,-0.053406,0.967712,2.915955,44.105682,-63.485565,298168.498168,136156630.036630,60790915.750916,90.391670,1,1,1,4,1,25.000000
2025-11-11 14:01:41.539,,,,,,,,,,,,,,,,,,,,,,,,,,,,,,,,,,,,,,,,,,/muse/elements/blink
2025-11-11 14:01:41.923,,,,,,,,,,,,,,,,,,,,,,,,,,,,,,,,,,,,,,,,,,/muse/elements/jaw_clench
2025-11-11 14:01:42.158,,,,,,,,,,,,,,,,,,,,,,,,,,,,,,,,,,,,,,,,,,/muse/elements/blink
2025-11-11 14:01:42.158,,,,,,,,,,,,,,,,,,,,,,,,,,,,,,,,,,,,,,,,,,/muse/elements/jaw_clench
2025-11-11 14:01:42.387,1.195362703835044,1.410733762508286,0.813013438604502,1.099270802209194,1.042432987251989,1.143135667064078,0.5749398856781787,0.7395429638524258,0.939581806697002,0.9834310476938311,0.3656130357765173,0.6505037362651154,0.661334530227662,0.6404769790300489,0.390640826713327,0.8692050202165007,0.309538612249747,0.09734191809137394,0.07462597137931731,0.1726279807047618,833.6630036630037,857.4358974358975,828.4249084249085,799.4139194139194,587.8754578754579,0.090820,-0.177551,0.943604,-0.314026,24.329529,-77.018585,295750.915751,135043736.263736,59910109.890110,89.228455,1,2,1,4,2,25.000000
2025-11-11 14:01:42.437,,,,,,,,,,,,,,,,,,,,,,,,,,,,,,,,,,,,,,,,,,/muse/elements/blink
2025-11-11 14:01:42.758,,,,,,,,,,,,,,,,,,,,,,,,,,,,,,,,,,,,,,,,,,/muse/elements/blink
2025-11-11 14:01:43.162,,,,,,,,,,,,,,,,,,,,,,,,,,,,,,,,,,,,,,,,,,/muse/elements/blink
2025-11-11 14:01:43.375,,,,,,,,,,,,,,,,,,,,,,,,,,,,,,,,,,,,,,,,,,/muse/elements/jaw_clench
2025-11-11 14:01:43.387,1.195362703835044,1.410733762508286,0.813013438604502,1.099270802209194,1.042432987251989,1.143135667064078,0.5749398856781787,0.7395429638524258,0.939581806697002,0.9834310476938311,0.3656130357765173,0.6505037362651154,0.661334530227662,0.6404769790300489,0.390640826713327,0.8692050202165007,0.309538612249747,0.09734191809137394,0.07462597137931731,0.1726279807047618,790.1465201465202,797.3992673992674,780.8791208791209,797.3992673992674,696.6666666666667,-0.087952,-0.023315,1.030090,-5.532837,3.200073,-21.443481,297362.637363,132996043.956044,58545787.545788,94.568993,1,2,1,4,2,25.000000
2025-11-11 14:01:43.568,,,,,,,,,,,,,,,,,,,,,,,,,,,,,,,,,,,,,,,,,,/muse/elements/jaw_clench
2025-11-11 14:01:44.391,1.195362703835044,1.410733762508286,0.813013438604502,1.099270802209194,1.042432987251989,1.143135667064078,0.5749398856781787,0.7395429638524258,0.939581806697002,0.9834310476938311,0.3656130357765173,0.6505037362651154,0.661334530227662,0.6404769790300489,0.390640826713327,0.8692050202165007,0.309538612249747,0.09734191809137394,0.07462597137931731,0.1726279807047618,791.3553113553114,701.9047619047619,470.2197802197803,803.8461538461539,659.5970695970697,0.300476,-0.041687,0.768127,-12.179718,-1.869202,-10.325470,301391.941392,135191208.791209,59985860.805861,95.510643,1,2,1,4,2,25.000000
2025-11-11 14:01:45.396,1.195362703835044,1.410733762508286,0.813013438604502,1.099270802209194,1.042432987251989,1.143135667064078,0.5749398856781787,0.7395429638524258,0.939581806697002,0.9834310476938311,0.3656130357765173,0.6505037362651154,0.661334530227662,0.6404769790300489,0.390640826713327,0.8692050202165007,0.309538612249747,0.09734191809137394,0.07462597137931731,0.1726279807047618,647.1062271062272,611.2454212454213,943.6630036630037,653.956043956044,865.8974358974359,0.614746,0.065308,0.739563,28.867950,-7.753448,45.548706,336849.816850,134984102.564103,59871428.571429,95.510643,1,2,1,4,2,25.000000
2025-11-11 14:01:45.617,,,,,,,,,,,,,,,,,,,,,,,,,,,,,,,,,,,,,,,,,,/muse/elements/blink
2025-11-11 14:01:46.387,1.195362703835044,1.410733762508286,0.813013438604502,1.099270802209194,1.042432987251989,1.143135667064078,0.5749398856781787,0.7395429638524258,0.939581806697002,0.9834310476938311,0.3656130357765173,0.6505037362651154,0.661334530227662,0.6404769790300489,0.390640826713327,0.8692050202165007,0.309538612249747,0.09734191809137394,0.07462597137931731,0.1726279807047618,735.7509157509157,828.4249084249085,927.1428571428572,712.7838827838829,782.0879120879121,0.274475,-0.169495,0.902954,27.679138,9.046936,66.655731,294945.054945,135808498.168498,60417802.197802,95.510643,1,2,1,2,2,25.000000
2025-11-11 14:01:46.532,,,,,,,,,,,,,,,,,,,,,,,,,,,,,,,,,,,,,,,,,,/muse/elements/blink
2025-11-11 14:01:47.387,1.195362703835044,1.410733762508286,0.813013438604502,1.099270802209194,1.042432987251989,1.143135667064078,0.5749398856781787,0.7395429638524258,0.939581806697002,0.9834310476938311,0.3656130357765173,0.6505037362651154,0.661334530227662,0.6404769790300489,0.390640826713327,0.8692050202165007,0.309538612249747,0.09734191809137394,0.07462597137931731,0.1726279807047618,643.4798534798535,697.0695970695971,753.0769230769231,684.1758241758242,617.6923076923077,0.367554,-0.162231,1.097351,30.953979,-18.938751,113.153992,298168.498168,136321025.641026,60811868.131868,95.648773,1,2,1,2,2,25.000000
2025-11-11 14:01:47.641,,,,,,,,,,,,,,,,,,,,,,,,,,,,,,,,,,,,,,,,,,/muse/elements/blink
2025-11-11 14:01:48.395,1.195362703835044,1.410733762508286,0.813013438604502,1.099270802209194,1.042432987251989,1.143135667064078,0.5749398856781787,0.7395429638524258,0.939581806697002,0.9834310476938311,0.3656130357765173,0.6505037362651154,0.661334530227662,0.6404769790300489,0.390640826713327,0.8692050202165007,0.309538612249747,0.09734191809137394,0.07462597137931731,0.1726279807047618,819.96336996337,811.5018315018315,747.4358974358975,824.7985347985348,712.3809523809524,0.104858,0.061646,0.953735,-9.592743,12.762909,17.936859,298974.358974,135599780.219780,60498388.278388,96.619743,1,2,1,2,2,25.000000
2025-11-11 14:01:49.387,1.195362703835044,1.410733762508286,0.813013438604502,1.099270802209194,1.042432987251989,1.143135667064078,0.5749398856781787,0.7395429638524258,0.939581806697002,0.9834310476938311,0.3656130357765173,0.6505037362651154,0.661334530227662,0.6404769790300489,0.390640826713327,0.8692050202165007,0.309538612249747,0.09734191809137394,0.07462597137931731,0.1726279807047618,803.8461538461539,770.8058608058608,597.1428571428571,801.4285714285714,713.5897435897436,0.416565,0.221924,0.965698,-13.465729,-21.727600,-23.163147,298168.498168,136649816.849817,61285714.285714,93.945694,1,2,1,1,2,25.000000
2025-11-11 14:01:49.855,,,,,,,,,,,,,,,,,,,,,,,,,,,,,,,,,,,,,,,,,,/muse/elements/blink
2025-11-11 14:01:50.154,,,,,,,,,,,,,,,,,,,,,,,,,,,,,,,,,,,,,,,,,,/muse/elements/blink
2025-11-11 14:01:50.388,1.195362703835044,1.410733762508286,0.813013438604502,1.099270802209194,1.042432987251989,1.143135667064078,0.5749398856781787,0.7395429638524258,0.939581806697002,0.9834310476938311,0.3656130357765173,0.6505037362651154,0.661334530227662,0.6404769790300489,0.390640826713327,0.8692050202165007,0.309538612249747,0.09734191809137394,0.07462597137931731,0.1726279807047618,822.3809523809524,799.0109890109891,857.8388278388279,807.0695970695971,747.8388278388279,0.343018,-0.083008,0.910461,-13.226471,6.437531,-42.879486,298168.498168,136090549.450549,60974652.014652,93.467224,1,2,1,2,2,25.000000
2025-11-11 14:01:51.388,1.195362703835044,1.410733762508286,0.813013438604502,1.099270802209194,1.042432987251989,1.143135667064078,0.5749398856781787,0.7395429638524258,0.939581806697002,0.9834310476938311,0.3656130357765173,0.6505037362651154,0.661334530227662,0.6404769790300489,0.390640826713327,0.8692050202165007,0.309538612249747,0.09734191809137394,0.07462597137931731,0.1726279807047618,795.7875457875458,793.7728937728938,842.1245421245421,812.7106227106227,673.6996336996338,0.318481,-0.066101,0.956726,-13.024597,4.209442,-62.169647,296556.776557,136371794.871795,61139047.619048,93.201752,1,2,1,2,2,25.000000
2025-11-11 14:01:51.394,,,,,,,,,,,,,,,,,,,,,,,,,,,,,,,,,,,,,,,,,,/muse/elements/blink
2025-11-11 14:01:52.098,,,,,,,,,,,,,,,,,,,,,,,,,,,,,,,,,,,,,,,,,,/muse/elements/blink
2025-11-11 14:01:52.388,1.195362703835044,1.410733762508286,0.813013438604502,1.099270802209194,1.042432987251989,1.143135667064078,0.5749398856781787,0.7395429638524258,0.939581806697002,0.9834310476938311,0.3656130357765173,0.6505037362651154,0.661334530227662,0.6404769790300489,0.390640826713327,0.8692050202165007,0.309538612249747,0.09734191809137394,0.07462597137931731,0.1726279807047618,860.6593406593407,832.8571428571429,947.2893772893773,810.2930402930403,869.1208791208792,0.136963,-0.093750,0.960693,-24.284668,13.787231,-47.141266,295750.915751,134710915.750916,59943956.043956,94.517159,1,2,1,2,2,25.000000
2025-11-11 14:01:53.311,,,,,,,,,,,,,,,,,,,,,,,,,,,,,,,,,,,,,,,,,,/muse/elements/blink
2025-11-11 14:01:53.387,1.195362703835044,1.410733762508286,0.813013438604502,1.099270802209194,1.042432987251989,1.143135667064078,0.5749398856781787,0.7395429638524258,0.939581806697002,0.9834310476938311,0.3656130357765173,0.6505037362651154,0.661334530227662,0.6404769790300489,0.390640826713327,0.8692050202165007,0.309538612249747,0.09734191809137394,0.07462597137931731,0.1726279807047618,782.4908424908425,796.1904761904763,701.5018315018315,772.014652014652,596.3369963369963,0.247375,0.069580,0.883301,-23.761292,-11.940460,-52.988129,300586.080586,136026886.446886,60807032.967033,94.337311,1,2,1,2,2,25.000000
2025-11-11 14:01:54.353,,,,,,,,,,,,,,,,,,,,,,,,,,,,,,,,,,,,,,,,,,/muse/elements/blink
2025-11-11 14:01:54.387,1.195362703835044,1.410733762508286,0.813013438604502,1.099270802209194,1.042432987251989,1.143135667064078,0.5749398856781787,0.7395429638524258,0.939581806697002,0.9834310476938311,0.3656130357765173,0.6505037362651154,0.661334530227662,0.6404769790300489,0.390640826713327,0.8692050202165007,0.309538612249747,0.09734191809137394,0.07462597137931731,0.1726279807047618,842.1245421245421,817.948717948718,1147.545787545788,783.2967032967033,722.0512820512821,0.078308,0.152161,1.307617,45.496368,-7.043152,19.260254,318315.018315,134191941.391941,59657875.457875,92.655037,1,2,1,2,2,25.000000
2025-11-11 14:01:54.714,,,,,,,,,,,,,,,,,,,,,,,,,,,,,,,,,,,,,,,,,,/muse/elements/blink
2025-11-11 14:01:55.387,1.195362703835044,1.410733762508286,0.813013438604502,1.099270802209194,1.042432987251989,1.143135667064078,0.5749398856781787,0.7395429638524258,0.939581806697002,0.9834310476938311,0.3656130357765173,0.6505037362651154,0.661334530227662,0.6404769790300489,0.390640826713327,0.8692050202165007,0.309538612249747,0.09734191809137394,0.07462597137931731,0.1726279807047618,707.5457875457876,993.6263736263736,967.4358974358975,728.0952380952381,977.1062271062272,0.366821,-0.159485,0.867554,30.983887,-2.467346,70.820312,298974.358974,136454798.534799,60750622.710623,94.457367,1,2,1,2,2,25.000000
2025-11-11 14:01:56.389,1.195362703835044,1.410733762508286,0.813013438604502,1.099270802209194,1.042432987251989,1.143135667064078,0.5749398856781787,0.7395429638524258,0.939581806697002,0.9834310476938311,0.3656130357765173,0.6505037362651154,0.661334530227662,0.6404769790300489,0.390640826713327,0.8692050202165007,0.309538612249747,0.09734191809137394,0.07462597137931731,0.1726279807047618,843.3333333333334,791.7582417582418,758.7179487179487,848.974358974359,643.0769230769231,0.476868,-0.303589,0.832520,24.150085,12.284393,73.803558,297362.637363,136852893.772894,61126153.846154,94.457367,1,2,1,1,2,25.000000
2025-11-11 14:01:56.455,,,,,,,,,,,,,,,,,,,,,,,,,,,,,,,,,,,,,,,,,,/muse/elements/blink
2025-11-11 14:01:57.388,1.195362703835044,1.410733762508286,0.813013438604502,1.099270802209194,1.042432987251989,1.143135667064078,0.5749398856781787,0.7395429638524258,0.939581806697002,0.9834310476938311,0.3656130357765173,0.6505037362651154,0.661334530227662,0.6404769790300489,0.390640826713327,0.8692050202165007,0.309538612249747,0.09734191809137394,0.07462597137931731,0.1726279807047618,758.7179487179487,791.7582417582418,765.5677655677656,777.2527472527473,728.901098901099,0.094543,0.158813,0.934021,-4.097290,-1.211243,36.471863,298974.358974,135051794.871795,60176043.956044,94.585121,1,2,1,2,2,25.000000
2025-11-11 14:01:57.987,,,,,,,,,,,,,,,,,,,,,,,,,,,,,,,,,,,,,,,,,,/muse/elements/blink
2025-11-11 14:01:58.388,1.195362703835044,1.410733762508286,0.813013438604502,1.260798440772352,1.042432987251989,1.143135667064078,0.5749398856781787,1.179044320332517,0.939581806697002,0.9834310476938311,0.3656130357765173,1.269675163792321,0.661334530227662,0.6404769790300489,0.390640826713327,0.8315339405173936,0.309538612249747,0.09734191809137394,0.07462597137931731,0.653176102513079,776.0439560439561,670.8791208791209,635.4212454212454,772.014652014652,811.0989010989011,0.353088,0.141357,0.987122,-9.921722,-10.183411,-20.583649,301391.941392,136117142.857143,60846520.146520,94.585121,1,1,1,2,1,25.000000
2025-11-11 14:01:59.388,1.195362703835044,1.410733762508286,0.813013438604502,1.463809209277778,1.042432987251989,1.143135667064078,0.5749398856781787,1.358238778559632,0.939581806697002,0.9834310476938311,0.3656130357765173,1.350003994344986,0.661334530227662,0.6404769790300489,0.390640826713327,1.21533866817368,0.309538612249747,0.09734191809137394,0.07462597137931731,0.6093332481217208,732.5274725274726,806.6666666666667,825.2014652014652,745.0183150183151,630.1831501831502,0.169617,-0.097900,0.913147,-2.243042,10.504913,-48.644104,298168.498168,135762564.102564,60696630.036630,97.635292,1,1,1,2,1,25.000000
2025-11-11 14:02:00.388,1.195362703835044,1.410733762508286,0.813013438604502,1.413282655969104,1.042432987251989,1.143135667064078,0.5749398856781787,1.148482140298474,0.939581806697002,0.9834310476938311,0.3656130357765173,1.256089612882061,0.661334530227662,0.6404769790300489,0.390640826713327,1.32880346789502,0.309538612249747,0.09734191809137394,0.07462597137931731,0.5293007129443292,713.5897435897436,807.4725274725275,867.9120879120879,710.7692307692308,731.7216117216118,0.355164,-0.064026,0.867065,-9.734802,20.621033,-41.488800,297362.637363,137194578.754579,61566959.706960,94.437309,1,1,1,2,1,25.000000
2025-11-11 14:02:00.623,,,,,,,,,,,,,,,,,,,,,,,,,,,,,,,,,,,,,,,,,,/muse/elements/blink
2025-11-11 14:02:01.029,,,,,,,,,,,,,,,,,,,,,,,,,,,,,,,,,,,,,,,,,,/muse/elements/blink
2025-11-11 14:02:01.388,1.195362703835044,1.410733762508286,0.813013438604502,1.413282655969104,1.042432987251989,1.143135667064078,0.5749398856781787,1.148482140298474,0.939581806697002,0.9834310476938311,0.3656130357765173,1.256089612882061,0.661334530227662,0.6404769790300489,0.390640826713327,1.32880346789502,0.309538612249747,0.09734191809137394,0.07462597137931731,0.5293007129443292,816.3369963369963,1002.087912087912,1239.41391941392,766.3736263736264,1132.637362637363,0.097534,-0.075806,0.910583,-35.724182,15.925598,-53.556366,294139.194139,134486080.586081,59896410.256410,92.588692,1,1,1,2,1,25.000000
2025-11-11 14:02:01.750,,,,,,,,,,,,,,,,,,,,,,,,,,,,,,,,,,,,,,,,,,/muse/elements/blink
2025-11-11 14:02:02.387,1.195362703835044,1.410733762508286,0.813013438604502,1.413282655969104,1.042432987251989,1.143135667064078,0.5749398856781787,1.148482140298474,0.939581806697002,0.9834310476938311,0.3656130357765173,1.256089612882061,0.661334530227662,0.6404769790300489,0.390640826713327,1.32880346789502,0.309538612249747,0.09734191809137394,0.07462597137931731,0.5293007129443292,811.5018315018315,937.6190476190476,870.3296703296703,801.4285714285714,512.5274725274726,-0.263794,0.138000,0.814575,3.409424,0.254211,-48.120728,295750.915751,132919487.179487,58793186.813187,92.880783,1,2,1,2,2,25.000000
2025-11-11 14:02:03.396,1.195362703835044,1.410733762508286,0.813013438604502,1.413282655969104,1.042432987251989,1.143135667064078,0.5749398856781787,1.148482140298474,0.939581806697002,0.9834310476938311,0.3656130357765173,1.256089612882061,0.661334530227662,0.6404769790300489,0.390640826713327,1.32880346789502,0.309538612249747,0.09734191809137394,0.07462597137931731,0.5293007129443292,721.6483516483516,763.956043956044,986.7765567765568,695.0549450549451,648.7179487179487,-0.554688,0.117065,1.099854,-0.254211,-0.112152,-5.450592,306227.106227,132164395.604396,58162197.802198,94.339813,1,2,1,1,2,25.000000
2025-11-11 14:02:03.684,,,,,,,,,,,,,,,,,,,,,,,,,,,,,,,,,,,,,,,,,,/muse/elements/blink
2025-11-11 14:02:04.301,,,,,,,,,,,,,,,,,,,,,,,,,,,,,,,,,,,,,,,,,,/muse/elements/blink
2025-11-11 14:02:04.396,1.195362703835044,1.410733762508286,0.813013438604502,1.413282655969104,1.042432987251989,1.143135667064078,0.5749398856781787,1.148482140298474,0.939581806697002,0.9834310476938311,0.3656130357765173,1.256089612882061,0.661334530227662,0.6404769790300489,0.390640826713327,1.32880346789502,0.309538612249747,0.09734191809137394,0.07462597137931731,0.5293007129443292,865.4945054945056,733.7362637362637,751.8681318681319,890.8791208791209,774.0293040293041,-0.065918,-0.071106,0.936218,-2.362671,-17.331238,109.370728,553626.373626,133232967.032967,58776263.736264,94.527420,1,2,1,2,2,25.000000
2025-11-11 14:02:04.472,,,,,,,,,,,,,,,,,,,,,,,,,,,,,,,,,,,,,,,,,,/muse/elements/blink
2025-11-11 14:02:05.396,1.195362703835044,1.410733762508286,0.813013438604502,1.413282655969104,1.042432987251989,1.143135667064078,0.5749398856781787,1.148482140298474,0.939581806697002,0.9834310476938311,0.3656130357765173,1.256089612882061,0.661334530227662,0.6404769790300489,0.390640826713327,1.32880346789502,0.309538612249747,0.09734191809137394,0.07462597137931731,0.5293007129443292,815.5311355311355,744.6153846153846,743.8095238095239,799.8168498168499,650.3296703296703,0.207397,-0.044678,0.982666,1.188812,-7.910461,94.783478,295750.915751,133657655.677656,59088131.868132,88.423141,1,2,1,1,2,25.000000
2025-11-11 14:02:06.301,,,,,,,,,,,,,,,,,,,,,,,,,,,,,,,,,,,,,,,,,,/muse/elements/blink
2025-11-11 14:02:06.396,1.12589549680156,1.410733762508286,0.813013438604502,1.598923171717322,0.4892747464116684,1.143135667064078,0.5749398856781787,1.04575648876803,0.4408221103484936,0.9834310476938311,0.3656130357765173,0.6624696256289019,0.7444175435297099,0.6404769790300489,0.390640826713327,0.6774332119314513,0.6753263010004523,0.09734191809137394,0.07462597137931731,0.4837174595684325,815.934065934066,794.981684981685,733.3333333333334,807.0695970695971,548.3882783882784,0.282349,0.078674,0.946960,4.321594,-13.286285,51.754456,296556.776557,134385347.985348,59625641.025641,88.423141,1,1,1,2,1,25.000000
2025-11-11 14:02:07.387,1.12589549680156,1.410733762508286,0.813013438604502,1.598923171717322,0.4892747464116684,1.143135667064078,0.5749398856781787,1.04575648876803,0.4408221103484936,0.9834310476938311,0.3656130357765173,0.6624696256289019,0.7444175435297099,0.6404769790300489,0.390640826713327,0.6774332119314513,0.6753263010004523,0.09734191809137394,0.07462597137931731,0.4837174595684325,792.1611721611722,781.2820512820513,603.992673992674,811.9047619047619,774.8351648351648,0.333130,0.197754,0.948914,1.360779,-14.714355,0.740204,298974.358974,135422490.842491,60111575.091575,88.423141,1,1,1,1,1,25.000000
2025-11-11 14:02:08.392,1.38246641586558,1.410733762508286,0.813013438604502,1.36491073181014,0.7941502673158496,1.143135667064078,0.5749398856781787,0.8262836100110115,0.7834660845640808,0.9834310476938311,0.3656130357765173,0.9381269696596874,0.9775234343174506,0.6404769790300489,0.390640826713327,0.9401752036051803,0.8498126985779126,0.09734191809137394,0.07462597137931731,0.4889435457043845,816.7399267399268,786.1172161172161,751.0622710622711,816.7399267399268,622.1245421245421,0.309875,-0.031311,0.909119,-6.063690,-1.622467,-24.897766,298168.498168,135775457.875458,60144615.384615,88.423141,1,1,1,2,1,25.000000
2025-11-11 14:02:09.395,1.583893114422171,1.410733762508286,0.813013438604502,1.692454752137235,1.072798934406803,1.143135667064078,0.5749398856781787,1.038578679731916,0.748418325455144,0.9834310476938311,0.3656130357765173,0.9553332995090735,1.049426137048805,0.6404769790300489,0.390640826713327,1.085609770598934,0.6241623457432436,0.09734191809137394,0.07462597137931731,0.4060815267168618,808.6813186813187,865.4945054945056,892.4908424908425,817.948717948718,483.5164835164835,0.537781,-0.041260,0.831116,-14.101257,6.744080,-45.952454,297362.637363,137902930.402930,61286520.146520,88.423141,1,1,1,2,1,25.000000
2025-11-11 14:02:10.045,,,,,,,,,,,,,,,,,,,,,,,,,,,,,,,,,,,,,,,,,,/muse/elements/blink
2025-11-11 14:02:10.397,1.519518532684772,1.410733762508286,0.813013438604502,1.692454752137235,0.9503814481614766,1.143135667064078,0.5749398856781787,1.038578679731916,0.968466970604166,0.9834310476938311,0.3656130357765173,0.9553332995090735,1.08776053645819,0.6404769790300489,0.390640826713327,1.085609770598934,0.6261294878028151,0.09734191809137394,0.07462597137931731,0.4060815267168618,835.6776556776557,812.3076923076924,792.1611721611722,815.1282051282052,732.9304029304029,0.259399,0.111877,0.970459,-31.410065,12.860107,-82.977600,296556.776557,135436190.476190,59806153.846154,89.742294,1,1,1,2,1,25.000000
2025-11-11 14:02:11.387,1.519518532684772,1.410733762508286,0.813013438604502,1.692454752137235,0.9503814481614766,1.143135667064078,0.5749398856781787,1.038578679731916,0.968466970604166,0.9834310476938311,0.3656130357765173,0.9553332995090735,1.08776053645819,0.6404769790300489,0.390640826713327,1.085609770598934,0.6261294878028151,0.09734191809137394,0.07462597137931731,0.4060815267168618,806.2637362637363,764.3589743589744,737.3626373626374,827.6190476190476,632.6007326007326,0.156555,0.314087,0.947693,-16.134949,-14.048920,-76.181183,296556.776557,135382197.802198,59794871.794872,93.001930,1,1,1,1,1,25.000000
2025-11-11 14:02:11.686,,,,,,,,,,,,,,,,,,,,,,,,,,,,,,,,,,,,,,,,,,/muse/elements/blink
2025-11-11 14:02:12.005,,,,,,,,,,,,,,,,,,,,,,,,,,,,,,,,,,,,,,,,,,/muse/elements/blink
2025-11-11 14:02:12.388,1.519518532684772,1.410733762508286,0.813013438604502,1.692454752137235,0.9503814481614766,1.143135667064078,0.5749398856781787,1.038578679731916,0.968466970604166,0.9834310476938311,0.3656130357765173,0.9553332995090735,1.08776053645819,0.6404769790300489,0.390640826713327,1.085609770598934,0.6261294878028151,0.09734191809137394,0.07462597137931731,0.4060815267168618,776.8498168498169,827.2161172161173,805.0549450549451,799.8168498168499,719.2307692307693,0.108215,-0.103149,0.935120,14.011536,-2.340240,12.762909,303809.523810,135423296.703297,59709450.549451,94.281029,1,2,1,1,2,25.000000
2025-11-11 14:02:12.623,,,,,,,,,,,,,,,,,,,,,,,,,,,,,,,,,,,,,,,,,,/muse/elements/blink
2025-11-11 14:02:13.096,,,,,,,,,,,,,,,,,,,,,,,,,,,,,,,,,,,,,,,,,,/muse/elements/blink
2025-11-11 14:02:13.388,1.519518532684772,1.410733762508286,0.813013438604502,1.692454752137235,0.9503814481614766,1.143135667064078,0.5749398856781787,1.038578679731916,0.968466970604166,0.9834310476938311,0.3656130357765173,0.9553332995090735,1.08776053645819,0.6404769790300489,0.390640826713327,1.085609770598934,0.6261294878028151,0.09734191809137394,0.07462597137931731,0.4060815267168618,782.893772893773,674.5054945054945,601.978021978022,801.025641025641,711.978021978022,0.531433,-0.176636,0.866516,17.607880,-11.858215,75.156860,328791.208791,137098681.318681,60620073.260073,94.281029,1,2,1,1,2,25.000000
2025-11-11 14:02:14.315,,,,,,,,,,,,,,,,,,,,,,,,,,,,,,,,,,,,,,,,,,/muse/elements/blink
2025-11-11 14:02:14.388,1.613695017390134,1.410733762508286,0.813013438604502,1.692454752137235,1.404083932650357,1.143135667064078,0.5749398856781787,1.038578679731916,1.485166962854204,0.9834310476938311,0.3656130357765173,0.9553332995090735,1.256711500109258,0.6404769790300489,0.390640826713327,1.085609770598934,0.4895317753274922,0.09734191809137394,0.07462597137931731,0.4060815267168618,823.5897435897436,797.8021978021978,777.6556776556777,829.2307692307693,554.0293040293041,0.344177,0.095398,0.870972,10.781555,6.587067,50.872192,296556.776557,136477362.637363,60302564.102564,94.281029,1,1,1,1,1,25.000000
2025-11-11 14:02:15.388,1.377324084264726,1.410733762508286,0.813013438604502,1.692454752137235,1.261869552748035,1.143135667064078,0.5749398856781787,1.038578679731916,1.022666315537078,0.9834310476938311,0.3656130357765173,0.9553332995090735,1.219171209288533,0.6404769790300489,0.390640826713327,1.085609770598934,0.4995215324354743,0.09734191809137394,0.07462597137931731,0.4060815267168618,810.2930402930403,813.1135531135532,656.3736263736264,826.4102564102565,662.8205128205128,0.383789,0.334839,1.082520,44.838409,14.587250,78.506470,295750.915751,136951208.791209,60568498.168498,95.108376,1,1,1,1,1,25.000000
2025-11-11 14:02:15.442,,,,,,,,,,,,,,,,,,,,,,,,,,,,,,,,,,,,,,,,,,/muse/elements/blink
2025-11-11 14:02:16.388,1.377324084264726,1.410733762508286,0.813013438604502,1.692454752137235,1.261869552748035,1.143135667064078,0.5749398856781787,1.038578679731916,1.022666315537078,0.9834310476938311,0.3656130357765173,0.9553332995090735,1.219171209288533,0.6404769790300489,0.390640826713327,1.085609770598934,0.4995215324354743,0.09734191809137394,0.07462597137931731,0.4060815267168618,819.5604395604396,825.6043956043957,850.1831501831502,809.0842490842491,672.893772893773,0.091919,-0.090332,1.020508,16.830292,16.067657,35.126038,299780.219780,136018827.838828,59834358.974359,92.542778,1,1,4,1,1,25.000000
2025-11-11 14:02:17.359,,,,,,,,,,,,,,,,,,,,,,,,,,,,,,,,,,,,,,,,,,/muse/elements/blink
2025-11-11 14:02:17.389,1.377324084264726,1.410733762508286,0.813013438604502,1.692454752137235,1.261869552748035,1.143135667064078,0.5749398856781787,1.038578679731916,1.022666315537078,0.9834310476938311,0.3656130357765173,0.9553332995090735,1.219171209288533,0.6404769790300489,0.390640826713327,1.085609770598934,0.4995215324354743,0.09734191809137394,0.07462597137931731,0.4060815267168618,844.5421245421246,808.6813186813187,770.8058608058608,820.3663003663004,545.5677655677656,0.400208,-0.201111,0.837097,1.996307,-12.733002,-7.289886,303809.523810,137411355.311355,60536263.736264,89.775589,1,2,1,1,2,25.000000
2025-11-11 14:02:17.784,,,,,,,,,,,,,,,,,,,,,,,,,,,,,,,,,,,,,,,,,,/muse/elements/blink
2025-11-11 14:02:18.391,1.377324084264726,1.410733762508286,0.813013438604502,1.692454752137235,1.261869552748035,1.143135667064078,0.5749398856781787,1.038578679731916,1.022666315537078,0.9834310476938311,0.3656130357765173,0.9553332995090735,1.219171209288533,0.6404769790300489,0.390640826713327,1.085609770598934,0.4995215324354743,0.09734191809137394,0.07462597137931731,0.4060815267168618,831.2454212454213,788.9377289377289,833.2600732600733,826.4102564102565,614.4688644688645,0.218994,0.043518,1.034790,-15.133057,26.243591,-39.066315,298974.358974,136935897.435897,60236483.516484,89.775589,1,2,1,2,2,25.000000
2025-11-11 14:02:18.805,,,,,,,,,,,,,,,,,,,,,,,,,,,,,,,,,,,,,,,,,,/muse/elements/blink
2025-11-11 14:02:19.390,1.377324084264726,1.410733762508286,0.813013438604502,1.692454752137235,1.261869552748035,1.143135667064078,0.5749398856781787,1.038578679731916,1.022666315537078,0.9834310476938311,0.3656130357765173,0.9553332995090735,1.219171209288533,0.6404769790300489,0.390640826713327,1.085609770598934,0.4995215324354743,0.09734191809137394,0.07462597137931731,0.4060815267168618,801.4285714285714,793.7728937728938,716.007326007326,774.0293040293041,633.4065934065934,0.290100,0.171509,0.868469,-37.929840,-3.372040,-97.056427,297362.637363,136620000.000000,60051135.531136,89.668800,1,2,1,1,2,25.000000
2025-11-11 14:02:20.393,0.5524543441128069,1.410733762508286,0.813013438604502,1.412875892975255,0.6519505262468891,1.143135667064078,0.5749398856781787,1.141266250806585,0.9347648151180735,0.9834310476938311,0.3656130357765173,0.8054169986466918,0.8733630799759892,0.6404769790300489,0.390640826713327,0.8201970469291412,0.607007181940305,0.09734191809137394,0.07462597137931731,0.4291817328578295,801.8315018315019,781.6849816849817,931.5750915750916,780.4761904761905,644.6886446886447,0.101562,-0.122803,0.958313,0.635529,22.789307,-53.085327,295750.915751,135858461.538462,59470915.750916,89.674271,1,1,1,2,1,25.000000
2025-11-11 14:02:21.393,1.083524487276766,1.410733762508286,0.813013438604502,1.216862545096848,0.817934764584095,1.143135667064078,0.5749398856781787,1.179171279330722,1.163330663267879,0.9834310476938311,0.3656130357765173,1.246155655151374,0.9892119369752392,0.6404769790300489,0.390640826713327,1.162327569332664,0.656739016172128,0.09734191809137394,0.07462597137931731,0.5109659625581954,832.4542124542124,804.6520146520147,790.1465201465202,809.8901098901099,606.8131868131868,0.256409,-0.178284,0.885254,6.340332,-11.514282,-15.985413,300586.080586,136370183.150183,59773919.413919,89.635338,1,1,1,2,1,25.000000
2025-11-11 14:02:21.937,,,,,,,,,,,,,,,,,,,,,,,,,,,,,,,,,,,,,,,,,,/muse/elements/blink
2025-11-11 14:02:22.236,,,,,,,,,,,,,,,,,,,,,,,,,,,,,,,,,,,,,,,,,,/muse/elements/blink
2025-11-11 14:02:22.395,1.420184088295974,1.410733762508286,0.813013438604502,1.0889563689666,1.106172499725788,1.143135667064078,0.5749398856781787,1.199001146121291,1.484414067369935,0.9834310476938311,0.3656130357765173,1.348940120262154,1.093582008303642,0.6404769790300489,0.390640826713327,1.348863832975525,0.7020278645393496,0.09734191809137394,0.07462597137931731,0.4987347078941551,830.4395604395604,810.2930402930403,807.4725274725275,819.1575091575091,822.7838827838829,-0.022827,0.035339,1.065125,-6.863708,10.101166,16.306915,307838.827839,135706959.706960,59368571.428571,89.635338,1,1,1,1,1,25.000000
2025-11-11 14:02:23.350,,,,,,,,,,,,,,,,,,,,,,,,,,,,,,,,,,,,,,,,,,/muse/elements/blink
2025-11-11 14:02:23.388,1.420184088295974,1.410733762508286,0.813013438604502,1.25293560358895,1.106172499725788,1.143135667064078,0.5749398856781787,1.256586485315284,1.484414067369935,0.9834310476938311,0.3656130357765173,1.217457740367005,1.093582008303642,0.6404769790300489,0.390640826713327,1.33123851862889,0.7020278645393496,0.09734191809137394,0.07462597137931731,0.4825625145484076,784.9084249084249,748.6446886446887,762.3443223443223,816.7399267399268,518.1684981684982,0.337219,0.057739,0.914368,13.503113,-6.325378,92.899323,393260.073260,136879487.179487,60076117.216117,89.635338,1,1,1,2,1,25.000000
2025-11-11 14:02:24.388,1.420184088295974,1.410733762508286,0.813013438604502,1.25293560358895,1.106172499725788,1.143135667064078,0.5749398856781787,1.256586485315284,1.484414067369935,0.9834310476938311,0.3656130357765173,1.217457740367005,1.093582008303642,0.6404769790300489,0.390640826713327,1.33123851862889,0.7020278645393496,0.09734191809137394,0.07462597137931731,0.4825625145484076,792.967032967033,823.992673992674,797.8021978021978,821.1721611721612,824.7985347985348,0.099731,-0.055664,1.247498,25.877228,6.295471,48.599243,297362.637363,136304102.564103,59685274.725275,90.167114,1,1,1,1,1,25.000000
2025-11-11 14:02:24.389,,,,,,,,,,,,,,,,,,,,,,,,,,,,,,,,,,,,,,,,,,/muse/elements/blink
2025-11-11 14:02:25.388,1.420184088295974,1.410733762508286,0.813013438604502,1.25293560358895,1.106172499725788,1.143135667064078,0.5749398856781787,1.256586485315284,1.484414067369935,0.9834310476938311,0.3656130357765173,1.217457740367005,1.093582008303642,0.6404769790300489,0.390640826713327,1.33123851862889,0.7020278645393496,0.09734191809137394,0.07462597137931731,0.4825625145484076,799.4139194139194,815.5311355311355,806.2637362637363,812.7106227106227,671.2820512820513,0.174866,-0.227112,0.882141,19.918213,-2.960815,57.885437,298974.358974,135964029.304029,59454798.534799,89.190826,1,2,1,1,2,25.000000
2025-11-11 14:02:26.388,1.420184088295974,1.410733762508286,0.813013438604502,1.192487403590369,1.106172499725788,1.143135667064078,0.5749398856781787,0.8258706845348743,1.484414067369935,0.9834310476938311,0.3656130357765173,0.9268676960840035,1.093582008303642,0.6404769790300489,0.390640826713327,0.9619667099415246,0.7020278645393496,0.09734191809137394,0.07462597137931731,0.6057473791478464,811.9047619047619,803.040293040293,791.7582417582418,805.0549450549451,542.3443223443223,0.008179,0.080994,1.018677,-14.549866,14.968567,9.106750,297362.637363,135824615.384615,59334725.274725,90.860992,1,1,1,1,1,25.000000
2025-11-11 14:02:27.388,1.517334592220559,1.410733762508286,0.813013438604502,1.162371681699741,0.9997704089973877,1.143135667064078,0.5749398856781787,0.739810204847021,1.006580436754015,0.9834310476938311,0.3656130357765173,0.8082824161711202,0.8590999447662441,0.6404769790300489,0.390640826713327,0.8789357101458724,0.6272111308317021,0.09734191809137394,0.07462597137931731,0.2340734536791963,843.7362637362637,781.6849816849817,655.9706959706959,801.4285714285714,692.6373626373627,0.256287,0.226562,1.019348,-11.805878,-16.164856,-44.853363,301391.941392,136065567.765568,59631282.051282,92.645309,1,1,1,1,1,25.000000
2025-11-11 14:02:27.624,,,,,,,,,,,,,,,,,,,,,,,,,,,,,,,,,,,,,,,,,,/muse/elements/blink
2025-11-11 14:02:28.326,,,,,,,,,,,,,,,,,,,,,,,,,,,,,,,,,,,,,,,,,,/muse/elements/blink
2025-11-11 14:02:28.388,1.610848207817239,1.410733762508286,0.813013438604502,1.181736210918973,0.9416713262495314,1.143135667064078,0.5749398856781787,0.7489600683136343,0.969261983952265,0.9834310476938311,0.3656130357765173,0.8082824161711202,1.012722062359736,0.6404769790300489,0.390640826713327,0.9044822545877708,0.6772327801433928,0.09734191809137394,0.07462597137931731,0.2688816490725126,806.2637362637363,805.4578754578755,897.3260073260074,807.8754578754579,726.8864468864469,0.160767,-0.128479,0.934265,-11.940460,17.323761,-60.988312,298974.358974,135565934.065934,59222710.622711,92.645309,1,1,1,1,1,25.000000
2025-11-11 14:02:29.072,,,,,,,,,,,,,,,,,,,,,,,,,,,,,,,,,,,,,,,,,,/muse/elements/blink
2025-11-11 14:02:29.388,1.610848207817239,1.410733762508286,0.813013438604502,1.181736210918973,0.9416713262495314,1.143135667064078,0.5749398856781787,0.7489600683136343,0.969261983952265,0.9834310476938311,0.3656130357765173,0.8082824161711202,1.012722062359736,0.6404769790300489,0.390640826713327,0.9044822545877708,0.6772327801433928,0.09734191809137394,0.07462597137931731,0.2688816490725126,813.5164835164835,801.025641025641,839.3040293040293,813.1135531135532,537.1062271062272,0.403931,-0.205811,0.881836,-27.080994,7.716064,-80.315857,294139.194139,136356483.516484,59598241.758242,99.353012,1,1,1,1,1,25.000000
2025-11-11 14:02:30.389,1.610848207817239,1.410733762508286,0.813013438604502,1.181736210918973,0.9416713262495314,1.143135667064078,0.5749398856781787,0.7489600683136343,0.969261983952265,0.9834310476938311,0.3656130357765173,0.8082824161711202,1.012722062359736,0.6404769790300489,0.390640826713327,0.9044822545877708,0.6772327801433928,0.09734191809137394,0.07462597137931731,0.2688816490725126,780.8791208791209,801.4285714285714,894.1025641025641,790.952380952381,844.1391941391942,-0.046509,0.028015,1.107605,-14.213409,17.488251,-33.780212,296556.776557,134673040.293040,58669890.109890,114.289459,1,2,1,1,2,25.000000
2025-11-11 14:02:30.476,,,,,,,,,,,,,,,,,,,,,,,,,,,,,,,,,,,,,,,,,,/muse/elements/blink
2025-11-11 14:02:31.389,1.396783809450312,1.410733762508286,0.813013438604502,1.348362438548599,0.9188683027490386,1.143135667064078,0.5749398856781787,1.210356622544114,1.0688708343617,0.9834310476938311,0.3656130357765173,1.05846858004655,1.151643778488366,0.6404769790300489,0.390640826713327,0.7108820068196904,0.7766193558232872,0.09734191809137394,0.07462597137931731,0.1272315487344703,791.3553113553114,762.3443223443223,817.5457875457876,801.4285714285714,882.014652014652,0.096069,0.194397,1.016479,6.078644,-17.809753,-11.962891,302197.802198,134768937.728938,58711794.871795,114.289459,1,1,1,1,1,25.000000
2025-11-11 14:02:32.388,1.396783809450312,1.410733762508286,0.813013438604502,1.270460070898141,0.9188683027490386,1.143135667064078,0.5749398856781787,1.074336329047845,1.0688708343617,0.9834310476938311,0.3656130357765173,1.063970010288436,1.151643778488366,0.6404769790300489,0.390640826713327,0.7276701821333464,0.7766193558232872,0.09734191809137394,0.07462597137931731,0.2296589007323572,796.5934065934066,759.92673992674,786.5201465201466,795.3846153846154,493.5897435897436,0.154480,-0.143921,0.951538,22.370605,5.846863,34.026947,327179.487179,135400732.600733,59161465.201465,114.289459,1,1,1,1,1,25.000000
2025-11-11 14:02:32.923,,,,,,,,,,,,,,,,,,,,,,,,,,,,,,,,,,,,,,,,,,/muse/elements/blink
2025-11-11 14:02:33.389,1.56110336509954,1.410733762508286,0.813013438604502,1.086152383808392,1.186646314182104,1.143135667064078,0.5749398856781787,0.7804166173546712,1.077534428332525,0.9834310476938311,0.3656130357765173,1.042696630108517,1.089742551834043,0.6404769790300489,0.390640826713327,0.8259785185577873,0.492125854446186,0.09734191809137394,0.07462597137931731,0.3218382507880332,787.7289377289378,739.7802197802198,732.5274725274726,805.4578754578755,745.4212454212454,0.398438,-0.233032,1.001526,18.235931,-11.095581,78.386841,298168.498168,136062344.322344,59796483.516484,114.289459,1,1,1,4,1,25.000000
2025-11-11 14:02:34.140,,,,,,,,,,,,,,,,,,,,,,,,,,,,,,,,,,,,,,,,,,/muse/elements/blink
2025-11-11 14:02:34.389,1.525924552189525,1.410733762508286,0.813013438604502,1.152763945959064,1.027800331486902,1.143135667064078,0.5749398856781787,0.8752129101517646,1.105939179728668,0.9834310476938311,0.3656130357765173,1.023005022112861,1.127060741959339,0.6404769790300489,0.390640826713327,0.9682617292116331,0.4981012891725335,0.09734191809137394,0.07462597137931731,0.4115458296576637,828.8278388278388,786.5201465201466,845.3479853479854,858.6446886446887,882.014652014652,0.222656,0.189697,0.964172,15.566711,10.377808,72.031555,298168.498168,135302417.582418,59557142.857143,114.289459,1,1,1,2,1,25.000000
2025-11-11 14:02:35.389,1.133139458680428,1.410733762508286,0.813013438604502,0.9430725274139221,1.012475393724273,1.143135667064078,0.5749398856781787,0.9284274931955507,0.9281329401574121,0.9834310476938311,0.3656130357765173,0.7627283000383478,1.178335499863814,0.6404769790300489,0.390640826713327,1.008224907389248,0.4789668258786773,0.09734191809137394,0.07462597137931731,0.4914496422199964,814.7252747252747,805.8608058608058,795.7875457875458,794.5787545787546,575.3846153846154,0.227966,0.072571,0.983215,-4.545898,-7.977753,29.899750,296556.776557,136321831.501832,60019706.959707,114.289459,1,1,1,2,1,25.000000
2025-11-11 14:02:36.161,,,,,,,,,,,,,,,,,,,,,,,,,,,,,,,,,,,,,,,,,,/muse/elements/blink
2025-11-11 14:02:36.389,1.133139458680428,1.410733762508286,0.813013438604502,1.421945704287006,1.012475393724273,1.143135667064078,0.5749398856781787,0.9873495077535117,0.9281329401574121,0.9834310476938311,0.3656130357765173,1.044934110088658,1.178335499863814,0.6404769790300489,0.390640826713327,0.7445528593698244,0.4789668258786773,0.09734191809137394,0.07462597137931731,0.3417530567725529,820.3663003663004,798.6080586080586,839.7069597069598,807.0695970695971,638.2417582417582,0.133484,-0.145874,0.981934,-0.403748,9.218903,-13.443298,301391.941392,136267032.967033,59789230.769231,114.289459,1,1,1,2,1,25.000000
2025-11-11 14:02:36.758,,,,,,,,,,,,,,,,,,,,,,,,,,,,,,,,,,,,,,,,,,/muse/elements/blink
2025-11-11 14:02:37.388,1.133139458680428,1.410733762508286,0.813013438604502,1.45451144256215,1.012475393724273,1.143135667064078,0.5749398856781787,1.118727324260887,0.9281329401574121,0.9834310476938311,0.3656130357765173,1.361504173669632,1.178335499863814,0.6404769790300489,0.390640826713327,0.9412072144982085,0.4789668258786773,0.09734191809137394,0.07462597137931731,0.2643456938047342,806.2637362637363,833.2600732600733,815.5311355311355,825.2014652014652,855.0183150183151,0.271851,-0.095825,0.854187,-5.016937,12.837677,-42.692566,298974.358974,136803736.263736,60105128.205128,114.289459,1,1,1,2,1,25.000000
2025-11-11 14:02:37.976,,,,,,,,,,,,,,,,,,,,,,,,,,,,,,,,,,,,,,,,,,/muse/elements/blink
2025-11-11 14:02:38.389,1.133139458680428,1.410733762508286,0.813013438604502,1.45451144256215,1.012475393724273,1.143135667064078,0.5749398856781787,1.118727324260887,0.9281329401574121,0.9834310476938311,0.3656130357765173,1.361504173669632,1.178335499863814,0.6404769790300489,0.390640826713327,0.9412072144982085,0.4789668258786773,0.09734191809137394,0.07462597137931731,0.2643456938047342,806.2637362637363,707.5457875457876,662.014652014652,796.996336996337,542.7472527472528,0.500366,-0.143982,0.908203,-33.466187,-8.433838,-74.992371,297362.637363,137483882.783883,60421025.641026,112.905815,1,1,1,2,1,25.000000
2025-11-11 14:02:39.394,1.133139458680428,1.410733762508286,0.813013438604502,1.462049527962532,1.012475393724273,1.143135667064078,0.5749398856781787,1.14333136609478,0.9281329401574121,0.9834310476938311,0.3656130357765173,1.298993464883037,1.178335499863814,0.6404769790300489,0.390640826713327,1.249791291269635,0.4789668258786773,0.09734191809137394,0.07462597137931731,0.4476896332695225,791.7582417582418,791.3553113553114,817.948717948718,791.7582417582418,652.3443223443223,0.236389,0.043213,0.915466,-17.488251,14.923706,-58.834991,294945.054945,136233992.673993,59709450.549451,99.996803,1,1,1,1,1,25.000000
2025-11-11 14:02:40.129,,,,,,,,,,,,,,,,,,,,,,,,,,,,,,,,,,,,,,,,,,/muse/elements/blink
2025-11-11 14:02:40.388,1.311979047366756,1.410733762508286,0.813013438604502,1.499419292965751,1.326770879934489,1.143135667064078,0.5749398856781787,1.096539382131311,1.012205051998575,0.9834310476938311,0.3656130357765173,1.317939252046666,1.044674086675387,0.6404769790300489,0.390640826713327,1.442681230899217,0.6676688408849866,0.09734191809137394,0.07462597137931731,0.415082672880012,778.8644688644689,754.6886446886447,781.2820512820513,811.9047619047619,1010.14652014652,0.352905,0.205200,0.802917,2.362671,-28.658600,-7.043152,301391.941392,135615897.435897,59505567.765568,99.996803,1,1,1,1,1,25.000000
2025-11-11 14:02:41.017,,,,,,,,,,,,,,,,,,,,,,,,,,,,,,,,,,,,,,,,,,/muse/elements/blink
2025-11-11 14:02:41.397,1.326486529456297,1.410733762508286,0.813013438604502,1.567960411338459,1.143495214917545,1.143135667064078,0.5749398856781787,0.9826447919319582,0.8877072888700163,0.9834310476938311,0.3656130357765173,1.120651211769704,0.9294923082888377,0.6404769790300489,0.390640826713327,1.617880332981302,0.3734061555514739,0.09734191809137394,0.07462597137931731,0.3508625694259367,785.3113553113553,775.6410256410256,817.1428571428571,797.3992673992674,709.5604395604396,0.105164,-0.125549,0.922424,14.744263,5.061798,50.565643,325567.765568,135972087.912088,59530549.450549,99.996803,1,1,1,1,1,25.000000
2025-11-11 14:02:41.959,,,,,,,,,,,,,,,,,,,,,,,,,,,,,,,,,,,,,,,,,,/muse/elements/blink
2025-11-11 14:02:42.388,1.326486529456297,1.410733762508286,0.813013438604502,1.567960411338459,1.143495214917545,1.143135667064078,0.5749398856781787,0.9826447919319582,0.8877072888700163,0.9834310476938311,0.3656130357765173,1.120651211769704,0.9294923082888377,0.6404769790300489,0.390640826713327,1.617880332981302,0.3734061555514739,0.09734191809137394,0.07462597137931731,0.3508625694259367,804.6520146520147,797.8021978021978,825.6043956043957,802.6373626373627,690.2197802197802,0.267151,-0.217346,0.968994,-5.607605,-9.682465,76.226044,319926.739927,136075238.095238,59514432.234432,99.996803,1,1,1,1,1,25.000000
2025-11-11 14:02:42.769,,,,,,,,,,,,,,,,,,,,,,,,,,,,,,,,,,,,,,,,,,/muse/elements/blink
2025-11-11 14:02:43.397,1.326486529456297,1.338595372681566,0.813013438604502,1.567960411338459,1.143495214917545,1.381062215540928,0.5749398856781787,0.9826447919319582,0.8877072888700163,0.9328631130903838,0.3656130357765173,1.120651211769704,0.9294923082888377,0.4095297009731072,0.390640826713327,1.617880332981302,0.3734061555514739,0.167053471041432,0.07462597137931731,0.3508625694259367,772.8205128205128,781.6849816849817,815.1282051282052,815.934065934066,894.1025641025641,0.166321,0.063293,0.925659,-2.018738,4.366455,47.746887,296556.776557,136607912.087912,59800512.820513,96.409203,1,2,1,1,2,25.000000
2025-11-11 14:02:43.788,,,,,,,,,,,,,,,,,,,,,,,,,,,,,,,,,,,,,,,,,,/muse/elements/blink
2025-11-11 14:02:44.395,1.326486529456297,1.348364091825466,0.813013438604502,1.567960411338459,1.143495214917545,1.573738033126353,0.5749398856781787,0.9826447919319582,0.8877072888700163,0.7305997793922598,0.3656130357765173,1.120651211769704,0.9294923082888377,0.5435221166599029,0.390640826713327,1.617880332981302,0.3734061555514739,0.2631016767516887,0.07462597137931731,0.3508625694259367,775.6410256410256,761.5384615384615,784.5054945054945,772.014652014652,569.3406593406594,0.329163,0.204346,1.057007,1.166382,-18.968658,47.761841,297362.637363,137084175.824176,60135750.915751,94.213638,1,2,1,1,2,25.000000
2025-11-11 14:02:45.388,1.326486529456297,1.348364091825466,0.813013438604502,1.567960411338459,1.143495214917545,1.573738033126353,0.5749398856781787,0.9826447919319582,0.8877072888700163,0.7305997793922598,0.3656130357765173,1.120651211769704,0.9294923082888377,0.5435221166599029,0.390640826713327,1.617880332981302,0.3734061555514739,0.2631016767516887,0.07462597137931731,0.3508625694259367,807.8754578754579,789.7435897435897,823.992673992674,796.5934065934066,586.6666666666666,0.202576,-0.177368,0.902710,22.325745,4.859924,32.539062,298974.358974,136574871.794872,59897216.117216,94.213638,1,2,1,1,2,25.000000
2025-11-11 14:02:46.388,1.326486529456297,1.348364091825466,0.813013438604502,1.322589549402863,1.143495214917545,1.573738033126353,0.5749398856781787,0.9804942306505818,0.8877072888700163,0.7305997793922598,0.3656130357765173,1.147091386899725,0.9294923082888377,0.5435221166599029,0.390640826713327,1.102293712182447,0.3734061555514739,0.2631016767516887,0.07462597137931731,0.1787855320539915,801.025641025641,750.6593406593407,496.4102564102564,744.6153846153846,931.978021978022,0.371460,-0.194763,0.897461,-12.276917,10.863800,-36.845703,306227.106227,136890769.230769,60297728.937729,94.347397,1,1,1,1,1,25.000000
2025-11-11 14:02:47.219,,,,,,,,,,,,,,,,,,,,,,,,,,,,,,,,,,,,,,,,,,/muse/elements/blink
2025-11-11 14:02:47.388,1.326486529456297,1.348364091825466,0.813013438604502,1.818040416658838,1.143495214917545,1.573738033126353,0.5749398856781787,1.485691571092493,0.8877072888700163,0.7305997793922598,0.3656130357765173,1.116860333086437,0.9294923082888377,0.5435221166599029,0.390640826713327,1.261941520438841,0.3734061555514739,0.2631016767516887,0.07462597137931731,0.826214217695502,817.948717948718,801.025641025641,793.7728937728938,835.2747252747253,626.1538461538462,0.314819,0.088989,0.950134,-26.490326,11.058197,-65.758514,297362.637363,136076849.816850,59959267.399267,91.917007,1,1,1,1,1,25.000000
2025-11-11 14:02:48.389,1.326486529456297,0.6377197962185041,0.813013438604502,1.818040416658838,1.143495214917545,0.8685404877932382,0.5749398856781787,1.485691571092493,0.8877072888700163,0.480859539270557,0.3656130357765173,1.116860333086437,0.9294923082888377,0.3716205977860855,0.390640826713327,1.261941520438841,0.3734061555514739,0.04902689772782488,0.07462597137931731,0.826214217695502,798.6080586080586,829.6336996336996,659.1941391941392,796.1904761904763,682.1611721611722,0.190369,0.346008,1.068359,-20.800476,7.484283,-108.817444,294945.054945,136309743.589744,60142197.802198,90.001434,1,1,1,1,1,25.000000
2025-11-11 14:02:48.454,,,,,,,,,,,,,,,,,,,,,,,,,,,,,,,,,,,,,,,,,,/muse/elements/blink
2025-11-11 14:02:49.033,,,,,,,,,,,,,,,,,,,,,,,,,,,,,,,,,,,,,,,,,,/muse/elements/blink
2025-11-11 14:02:49.389,1.326486529456297,0.7320333087411222,0.813013438604502,1.818040416658838,1.143495214917545,0.8517395453052257,0.5749398856781787,1.485691571092493,0.8877072888700163,0.480859539270557,0.3656130357765173,1.116860333086437,0.9294923082888377,0.3493635000077166,0.390640826713327,1.261941520438841,0.3734061555514739,0.06415186935854326,0.07462597137931731,0.826214217695502,786.1172161172161,827.6190476190476,850.5860805860806,782.4908424908425,780.4761904761905,0.063965,-0.150574,0.939026,14.706879,16.217194,-24.105225,297362.637363,135864908.424908,59839194.139194,90.982727,1,2,1,1,2,25.000000
2025-11-11 14:02:49.884,,,,,,,,,,,,,,,,,,,,,,,,,,,,,,,,,,,,,,,,,,/muse/elements/blink
2025-11-11 14:02:50.388,1.326486529456297,0.7320333087411222,0.813013438604502,1.818040416658838,1.143495214917545,0.8517395453052257,0.5749398856781787,1.485691571092493,0.8877072888700163,0.480859539270557,0.3656130357765173,1.116860333086437,0.9294923082888377,0.3493635000077166,0.390640826713327,1.261941520438841,0.3734061555514739,0.06415186935854326,0.07462597137931731,0.826214217695502,802.6373626373627,869.92673992674,746.2271062271062,796.1904761904763,575.3846153846154,0.506958,-0.259094,0.758789,16.336823,7.708588,21.398621,303809.523810,138494432.234432,61301025.641026,91.060242,1,2,1,2,2,25.000000
2025-11-11 14:02:50.501,,,,,,,,,,,,,,,,,,,,,,,,,,,,,,,,,,,,,,,,,,/muse/elements/blink
2025-11-11 14:02:51.191,,,,,,,,,,,,,,,,,,,,,,,,,,,,,,,,,,,,,,,,,,/muse/elements/blink
2025-11-11 14:02:51.389,1.326486529456297,0.7320333087411222,0.813013438604502,1.818040416658838,1.143495214917545,0.8517395453052257,0.5749398856781787,1.485691571092493,0.8877072888700163,0.480859539270557,0.3656130357765173,1.116860333086437,0.9294923082888377,0.3493635000077166,0.390640826713327,1.261941520438841,0.3734061555514739,0.06415186935854326,0.07462597137931731,0.826214217695502,615.2747252747253,754.2857142857143,941.2454212454213,653.956043956044,1272.857142857143,0.123596,0.151123,0.955994,-0.889740,-11.641388,66.266937,365860.805861,135652161.172161,59554725.274725,91.637543,1,2,1,1,2,25.000000
2025-11-11 14:02:51.622,,,,,,,,,,,,,,,,,,,,,,,,,,,,,,,,,,,,,,,,,,/muse/elements/blink
2025-11-11 14:02:52.388,1.326486529456297,0.7320333087411222,0.813013438604502,1.818040416658838,1.143495214917545,0.8517395453052257,0.5749398856781787,1.485691571092493,0.8877072888700163,0.480859539270557,0.3656130357765173,1.116860333086437,0.9294923082888377,0.3493635000077166,0.390640826713327,1.261941520438841,0.3734061555514739,0.06415186935854326,0.07462597137931731,0.826214217695502,777.6556776556777,755.8974358974359,806.6666666666667,736.959706959707,1010.549450549451,0.281616,0.028503,0.908142,13.114319,-32.352142,83.897247,294945.054945,136008351.648352,59807765.567766,91.742279,1,2,1,1,2,25.000000
2025-11-11 14:02:53.198,,,,,,,,,,,,,,,,,,,,,,,,,,,,,,,,,,,,,,,,,,/muse/elements/blink
2025-11-11 14:02:53.388,1.326486529456297,0.7320333087411222,0.813013438604502,1.818040416658838,1.143495214917545,0.8517395453052257,0.5749398856781787,1.485691571092493,0.8877072888700163,0.480859539270557,0.3656130357765173,1.116860333086437,0.9294923082888377,0.3493635000077166,0.390640826713327,1.261941520438841,0.3734061555514739,0.06415186935854326,0.07462597137931731,0.826214217695502,826.007326007326,806.6666666666667,828.021978021978,819.96336996337,546.7765567765568,0.096985,0.083069,1.005188,22.206116,13.682556,59.223785,298168.498168,134229010.989011,59121172.161172,91.395187,1,2,1,4,2,25.000000
2025-11-11 14:02:54.389,1.326486529456297,0.7320333087411222,0.813013438604502,1.818040416658838,1.143495214917545,0.8517395453052257,0.5749398856781787,1.485691571092493,0.8877072888700163,0.480859539270557,0.3656130357765173,1.116860333086437,0.9294923082888377,0.3493635000077166,0.390640826713327,1.261941520438841,0.3734061555514739,0.06415186935854326,0.07462597137931731,0.826214217695502,805.0549450549451,844.5421245421246,794.981684981685,810.2930402930403,1087.106227106227,0.227539,-0.157715,0.844727,30.333405,12.755432,70.461426,299780.219780,135536923.076923,59973772.893773,90.424797,1,2,1,1,2,25.000000
2025-11-11 14:02:55.367,,,,,,,,,,,,,,,,,,,,,,,,,,,,,,,,,,,,,,,,,,/muse/elements/blink
2025-11-11 14:02:55.388,1.326486529456297,0.7320333087411222,0.813013438604502,0.9718350765101511,1.143495214917545,0.8517395453052257,0.5749398856781787,0.4434337373710919,0.8877072888700163,0.480859539270557,0.3656130357765173,0.7246101957113079,0.9294923082888377,0.3493635000077166,0.390640826713327,0.7067784847760923,0.3734061555514739,0.06415186935854326,0.07462597137931731,0.6287900934442761,838.4981684981685,807.8754578754579,817.5457875457876,840.1098901098901,711.1721611721612,0.109253,-0.013184,0.966736,-17.301331,2.175751,-11.873169,303809.523810,135014725.274725,59865787.545788,89.954155,1,1,1,1,1,25.000000
2025-11-11 14:02:55.731,,,,,,,,,,,,,,,,,,,,,,,,,,,,,,,,,,,,,,,,,,/muse/elements/blink
2025-11-11 14:02:56.389,1.326486529456297,0.7320333087411222,0.813013438604502,0.8221520702729719,1.143495214917545,0.8517395453052257,0.5749398856781787,0.4558662461098749,0.8877072888700163,0.480859539270557,0.3656130357765173,0.7078345779517639,0.9294923082888377,0.3493635000077166,0.390640826713327,0.5899952288717467,0.3734061555514739,0.06415186935854326,0.07462597137931731,0.5939864663123489,719.6336996336996,811.0989010989011,740.1831501831502,722.4542124542124,558.4615384615385,0.226196,0.141113,0.914490,-33.481140,10.497437,-96.727448,297362.637363,136246080.586081,60498388.278388,93.182709,1,1,1,1,1,25.000000
2025-11-11 14:02:56.581,,,,,,,,,,,,,,,,,,,,,,,,,,,,,,,,,,,,,,,,,,/muse/elements/blink
2025-11-11 14:02:57.197,,,,,,,,,,,,,,,,,,,,,,,,,,,,,,,,,,,,,,,,,,/muse/elements/blink
2025-11-11 14:02:57.389,1.326486529456297,0.7320333087411222,0.813013438604502,0.8221520702729719,1.143495214917545,0.8517395453052257,0.5749398856781787,0.4558662461098749,0.8877072888700163,0.480859539270557,0.3656130357765173,0.7078345779517639,0.9294923082888377,0.3493635000077166,0.390640826713327,0.5899952288717467,0.3734061555514739,0.06415186935854326,0.07462597137931731,0.5939864663123489,809.8901098901099,812.3076923076924,946.8864468864469,794.981684981685,844.9450549450549,-0.156128,-0.172058,1.462646,-6.317902,2.175751,-91.807709,296556.776557,134668205.128205,59243663.003663,92.148529,1,1,1,1,1,25.000000
2025-11-11 14:02:58.332,,,,,,,,,,,,,,,,,,,,,,,,,,,,,,,,,,,,,,,,,,/muse/elements/blink
2025-11-11 14:02:58.332,,,,,,,,,,,,,,,,,,,,,,,,,,,,,,,,,,,,,,,,,,/muse/elements/jaw_clench
2025-11-11 14:02:58.389,1.326486529456297,0.7320333087411222,0.813013438604502,0.8221520702729719,1.143495214917545,0.8517395453052257,0.5749398856781787,0.4558662461098749,0.8877072888700163,0.480859539270557,0.3656130357765173,0.7078345779517639,0.9294923082888377,0.3493635000077166,0.390640826713327,0.5899952288717467,0.3734061555514739,0.06415186935854326,0.07462597137931731,0.5939864663123489,842.5274725274726,1414.285714285714,1622.600732600733,950.5128205128206,752.6739926739926,-0.119080,-0.031189,0.922913,23.469696,17.518158,-23.551941,293333.333333,130925787.545788,56535164.835165,91.662796,1,2,1,1,2,25.000000
2025-11-11 14:02:59.389,1.326486529456297,0.7320333087411222,0.813013438604502,0.8221520702729719,1.143495214917545,0.8517395453052257,0.5749398856781787,0.4558662461098749,0.8877072888700163,0.480859539270557,0.3656130357765173,0.7078345779517639,0.9294923082888377,0.3493635000077166,0.390640826713327,0.5899952288717467,0.3734061555514739,0.06415186935854326,0.07462597137931731,0.5939864663123489,864.2857142857143,920.6959706959707,903.3699633699634,837.6923076923077,683.7728937728938,-0.430664,0.044495,0.987305,6.056213,18.243408,-9.645081,297362.637363,132164395.604396,57300732.600733,93.922302,1,2,1,1,2,25.000000
2025-11-11 14:02:59.416,,,,,,,,,,,,,,,,,,,,,,,,,,,,,,,,,,,,,,,,,,/muse/elements/blink
2025-11-11 14:03:00.389,1.326486529456297,0.7320333087411222,0.813013438604502,0.8221520702729719,1.143495214917545,0.8517395453052257,0.5749398856781787,0.4558662461098749,0.8877072888700163,0.480859539270557,0.3656130357765173,0.7078345779517639,0.9294923082888377,0.3493635000077166,0.390640826713327,0.5899952288717467,0.3734061555514739,0.06415186935854326,0.07462597137931731,0.5939864663123489,800.2197802197802,799.8168498168499,752.6739926739926,780.0732600732601,581.025641025641,-0.304810,0.116394,0.856323,-18.183594,-4.082336,6.736603,323150.183150,132277216.117216,57353113.553114,94.397377,1,2,1,1,2,25.000000
2025-11-11 14:03:00.862,,,,,,,,,,,,,,,,,,,,,,,,,,,,,,,,,,,,,,,,,,/muse/elements/blink
2025-11-11 14:03:01.392,1.326486529456297,0.7320333087411222,0.813013438604502,0.8221520702729719,1.143495214917545,0.8517395453052257,0.5749398856781787,0.4558662461098749,0.8877072888700163,0.480859539270557,0.3656130357765173,0.7078345779517639,0.9294923082888377,0.3493635000077166,0.390640826713327,0.5899952288717467,0.3734061555514739,0.06415186935854326,0.07462597137931731,0.5939864663123489,815.1282051282052,877.985347985348,755.4945054945055,849.7802197802198,702.3076923076924,-0.428650,0.106201,1.207642,-7.574005,-10.093689,42.348633,737362.637363,131518901.098901,56676190.476190,94.397377,1,2,1,1,2,25.000000
2025-11-11 14:03:01.825,,,,,,,,,,,,,,,,,,,,,,,,,,,,,,,,,,,,,,,,,,/muse/elements/blink
2025-11-11 14:03:02.390,1.326486529456297,0.7320333087411222,0.813013438604502,0.8221520702729719,1.143495214917545,0.8517395453052257,0.5749398856781787,0.4558662461098749,0.8877072888700163,0.480859539270557,0.3656130357765173,0.7078345779517639,0.9294923082888377,0.3493635000077166,0.390640826713327,0.5899952288717467,0.3734061555514739,0.06415186935854326,0.07462597137931731,0.5939864663123489,814.3223443223443,745.4212454212454,683.3699633699634,799.4139194139194,668.0586080586081,0.210571,-0.075500,0.921570,26.864166,-0.074768,86.558990,297362.637363,133941318.681319,58371721.611722,93.158882,1,2,1,1,2,25.000000
2025-11-11 14:03:03.389,1.326486529456297,0.7320333087411222,0.813013438604502,0.8221520702729719,1.143495214917545,0.8517395453052257,0.5749398856781787,0.4558662461098749,0.8877072888700163,0.480859539270557,0.3656130357765173,0.7078345779517639,0.9294923082888377,0.3493635000077166,0.390640826713327,0.5899952288717467,0.3734061555514739,0.06415186935854326,0.07462597137931731,0.5939864663123489,804.2490842490843,717.6190476190476,706.3369963369963,791.7582417582418,754.2857142857143,0.251892,-0.223877,1.059631,9.331055,-10.751648,70.678253,298168.498168,133631062.271062,58294358.974359,92.596054,1,2,1,1,2,25.000000
2025-11-11 14:03:03.677,,,,,,,,,,,,,,,,,,,,,,,,,,,,,,,,,,,,,,,,,,/muse/elements/blink
2025-11-11 14:03:04.389,1.326486529456297,0.7320333087411222,0.813013438604502,0.8221520702729719,1.143495214917545,0.8517395453052257,0.5749398856781787,0.4558662461098749,0.8877072888700163,0.480859539270557,0.3656130357765173,0.7078345779517639,0.9294923082888377,0.3493635000077166,0.390640826713327,0.5899952288717467,0.3734061555514739,0.06415186935854326,0.07462597137931731,0.5939864663123489,855.4212454212454,820.3663003663004,751.8681318681319,843.3333333333334,746.2271062271062,0.170105,0.070129,0.964844,-11.566620,5.383301,-7.633820,298974.358974,134806813.186813,58949523.809524,92.596054,1,2,1,1,2,25.000000
2025-11-11 14:03:04.803,,,,,,,,,,,,,,,,,,,,,,,,,,,,,,,,,,,,,,,,,,/muse/elements/blink
2025-11-11 14:03:05.390,1.326486529456297,0.7320333087411222,0.813013438604502,0.8221520702729719,1.143495214917545,0.8517395453052257,0.5749398856781787,0.4558662461098749,0.8877072888700163,0.480859539270557,0.3656130357765173,0.7078345779517639,0.9294923082888377,0.3493635000077166,0.390640826713327,0.5899952288717467,0.3734061555514739,0.06415186935854326,0.07462597137931731,0.5939864663123489,808.2783882783883,782.0879120879121,465.7875457875458,801.4285714285714,697.8754578754579,0.340820,0.196533,0.997131,-15.611572,-7.514191,-60.203247,298974.358974,136506373.626374,59795677.655678,92.596054,1,2,1,1,2,25.000000
2025-11-11 14:03:06.102,,,,,,,,,,,,,,,,,,,,,,,,,,,,,,,,,,,,,,,,,,/muse/elements/blink
