TimeStamp,Delta_TP9,Delta_AF7,Delta_AF8,Delta_TP10,Theta_TP9,Theta_AF7,Theta_AF8,Theta_TP10,Alpha_TP9,Alpha_AF7,Alpha_AF8,Alpha_TP10,Beta_TP9,Beta_AF7,Beta_AF8,Beta_TP10,Gamma_TP9,Gamma_AF7,Gamma_AF8,Gamma_TP10,RAW_TP9,RAW_AF7,RAW_AF8,RAW_TP10,AUX_RIGHT,Accelerometer_X,Accelerometer_Y,Accelerometer_Z,Gyro_X,Gyro_Y,Gyro_Z,PPG_Ambient,PPG_IR,PPG_Red,Heart_Rate,HeadBandOn,HSI_TP9,HSI_AF7,HSI_AF8,HSI_TP10,Battery,Elements
2025-11-11 15:51:42.042,,,,,,,,,,,,,,,,,,,,,,,,,,,,,,,,,,,,,,,,,,/muse/event/connected Muse-135C
2025-11-11 15:51:42.149,,,,,,,,,,,,,,,,,,,,,,,,,,,,,,,,,,,,,,,,,,/muse/elements/blink
2025-11-11 15:51:43.043,1.608509564165415,-0.2130158743670133,0.8325560436780364,0.8302513290489053,1.519492609439513,-0.3469548219910235,0.5854790905744854,0.4536426325707423,1.523608182407548,0.2543931499717882,0.2647032384747063,0.7098758125957483,1.150544065740626,0.5117205101029636,0.3187833788785273,0.5905387076350709,0.7426307944199279,0.4581120670029268,0.2052592238032415,0.4453047173669427,801.8315018315019,787.7289377289378,801.025641025641,821.1721611721612,952.9304029304029,-0.231201,0.070557,0.960815,7.192688,-6.003876,8.045044,340073.260073,124043736.263736,50088278.388278,92.477013,1,2,1,1,2,85.000000
2025-11-11 15:51:43.577,,,,,,,,,,,,,,,,,,,,,,,,,,,,,,,,,,,,,,,,,,/muse/elements/blink
2025-11-11 15:51:43.684,,,,,,,,,,,,,,,,,,,,,,,,,,,,,,,,,,,,,,,,,,/muse/elements/jaw_clench
2025-11-11 15:51:44.043,1.608509564165415,0.4440404206776133,0.8430013039301471,0.8302513290489053,1.519492609439513,0.07442494038292367,0.4973338614548668,0.4536426325707423,1.523608182407548,0.3349057292793398,0.2502079899635873,0.7098758125957483,1.150544065740626,0.5439478830168907,0.2870619363987979,0.5905387076350709,0.7426307944199279,0.873879026599009,0.1837835210433187,0.4453047173669427,794.5787545787546,801.4285714285714,783.6996336996338,840.9157509157509,702.3076923076924,0.228821,0.361145,0.853027,31.529694,26.236115,55.148926,307838.827839,124624761.904762,50242197.802198,92.477013,1,2,1,1,2,85.000000
2025-11-11 15:51:44.277,,,,,,,,,,,,,,,,,,,,,,,,,,,,,,,,,,,,,,,,,,/muse/elements/blink
2025-11-11 15:51:44.487,,,,,,,,,,,,,,,,,,,,,,,,,,,,,,,,,,,,,,,,,,/muse/elements/blink
2025-11-11 15:51:44.981,,,,,,,,,,,,,,,,,,,,,,,,,,,,,,,,,,,,,,,,,,/muse/elements/blink
2025-11-11 15:51:45.042,1.608509564165415,0.4440404206776133,0.6061663876690332,0.8302513290489053,1.519492609439513,0.07442494038292367,0.2000269192124524,0.4536426325707423,1.523608182407548,0.3349057292793398,0.1215645487448628,0.7098758125957483,1.150544065740626,0.5439478830168907,0.3148796537127467,0.5905387076350709,0.7426307944199279,0.873879026599009,0.2202845390028347,0.4453047173669427,805.8608058608058,790.5494505494506,800.6227106227107,753.0769230769231,711.978021978022,0.078552,0.250977,1.023560,-11.589050,-12.508698,70.207214,307032.967033,124168644.688645,50118095.238095,92.477013,1,2,1,1,2,85.000000
2025-11-11 15:51:45.607,,,,,,,,,,,,,,,,,,,,,,,,,,,,,,,,,,,,,,,,,,/muse/elements/blink
2025-11-11 15:51:45.926,,,,,,,,,,,,,,,,,,,,,,,,,,,,,,,,,,,,,,,,,,/muse/elements/blink
2025-11-11 15:51:46.043,1.608509564165415,0.4440404206776133,0.6061663876690332,0.8302513290489053,1.519492609439513,0.07442494038292367,0.2000269192124524,0.4536426325707423,1.523608182407548,0.3349057292793398,0.1215645487448628,0.7098758125957483,1.150544065740626,0.5439478830168907,0.3148796537127467,0.5905387076350709,0.7426307944199279,0.873879026599009,0.2202845390028347,0.4453047173669427,843.7362637362637,799.0109890109891,797.3992673992674,819.5604395604396,705.934065934066,-0.124084,0.052185,0.909058,-2.422485,8.403931,-7.364655,303809.523810,124006666.666667,50128571.428571,92.477013,1,2,1,1,2,85.000000
2025-11-11 15:51:47.043,1.608509564165415,0.6379461206217211,0.2972591527059269,0.8302513290489053,1.519492609439513,0.2304409906511127,-0.05297429075346839,0.4536426325707423,1.523608182407548,0.5111858002020443,-0.178413497322521,0.7098758125957483,1.150544065740626,0.4817997852043475,-0.02872661696105588,0.5905387076350709,0.7426307944199279,0.3889207570144195,0.1474771095176082,0.4453047173669427,770.8058608058608,780.0732600732601,808.6813186813187,774.0293040293041,607.2161172161173,-0.173706,-0.104126,1.000671,0.142059,-7.259979,-11.940460,307032.967033,123747179.487179,50056849.816850,92.477013,1,2,1,1,2,85.000000
2025-11-11 15:51:47.840,,,,,,,,,,,,,,,,,,,,,,,,,,,,,,,,,,,,,,,,,,/muse/elements/blink
2025-11-11 15:51:48.043,1.608509564165415,0.3160451549417906,0.4807662265097467,0.8302513290489053,1.519492609439513,0.003746460836864138,-0.1086713103767731,0.4536426325707423,1.523608182407548,0.2994796139073025,-0.04066770153774211,0.7098758125957483,1.150544065740626,0.3230247109046043,0.09242717520940505,0.5905387076350709,0.7426307944199279,0.3101390255546281,0.1903470574419139,0.4453047173669427,798.2051282051282,790.1465201465202,807.8754578754579,810.2930402930403,816.7399267399268,-0.207947,0.045471,0.916077,9.966583,16.755524,-38.326111,315897.435897,123535238.095238,50052820.512821,84.864235,1,2,1,1,2,85.000000
2025-11-11 15:51:48.222,,,,,,,,,,,,,,,,,,,,,,,,,,,,,,,,,,,,,,,,,,/muse/elements/blink
2025-11-11 15:51:48.735,,,,,,,,,,,,,,,,,,,,,,,,,,,,,,,,,,,,,,,,,,/muse/elements/blink
2025-11-11 15:51:49.043,1.608509564165415,0.7594626878656631,0.5954922804899685,0.8302513290489053,1.519492609439513,0.1673505898074029,-0.1214859820245043,0.4536426325707423,1.523608182407548,0.2752832455954151,-0.2524124760194364,0.7098758125957483,1.150544065740626,0.337809863621646,0.208657959265746,0.5905387076350709,0.7426307944199279,0.3163457570352776,0.2177776927632734,0.4453047173669427,670.0732600732601,808.6813186813187,770,686.1904761904763,1041.575091575092,-0.194153,0.068542,0.953369,-20.643463,10.564728,-73.265228,437582.417582,123794725.274725,50223663.003663,83.493439,1,2,1,1,2,85.000000
2025-11-11 15:51:49.266,,,,,,,,,,,,,,,,,,,,,,,,,,,,,,,,,,,,,,,,,,/muse/elements/blink
2025-11-11 15:51:49.779,,,,,,,,,,,,,,,,,,,,,,,,,,,,,,,,,,,,,,,,,,/muse/elements/blink
2025-11-11 15:51:50.043,1.608509564165415,0.7594626878656631,0.5954922804899685,0.8302513290489053,1.519492609439513,0.1673505898074029,-0.1214859820245043,0.4536426325707423,1.523608182407548,0.2752832455954151,-0.2524124760194364,0.7098758125957483,1.150544065740626,0.337809863621646,0.208657959265746,0.5905387076350709,0.7426307944199279,0.3163457570352776,0.2177776927632734,0.4453047173669427,813.1135531135532,792.1611721611722,819.5604395604396,838.0952380952381,465.3846153846154,0.025574,-0.061340,0.700317,23.753815,24.366913,-65.982819,305421.245421,123784249.084249,50199487.179487,83.493439,1,2,1,1,2,85.000000
2025-11-11 15:51:50.990,,,,,,,,,,,,,,,,,,,,,,,,,,,,,,,,,,,,,,,,,,/muse/elements/blink
2025-11-11 15:51:51.043,1.608509564165415,0.6708443741001775,0.5954922804899685,0.8302513290489053,1.519492609439513,0.1516769867117924,-0.1214859820245043,0.4536426325707423,1.523608182407548,-0.1197987294207703,-0.2524124760194364,0.7098758125957483,1.150544065740626,0.2544799483490445,0.208657959265746,0.5905387076350709,0.7426307944199279,0.1026845946035725,0.2177776927632734,0.4453047173669427,800.2197802197802,795.3846153846154,807.8754578754579,797.8021978021978,721.6483516483516,0.048523,0.061584,1.192993,8.740387,-31.096039,-20.030365,311868.131868,124495018.315018,50335677.655678,83.493439,1,2,1,1,2,85.000000
2025-11-11 15:51:51.586,,,,,,,,,,,,,,,,,,,,,,,,,,,,,,,,,,,,,,,,,,/muse/elements/blink
2025-11-11 15:51:52.042,1.608509564165415,0.9188809765459156,1.50886813418976,0.8302513290489053,1.519492609439513,0.384328907787376,1.129365483443166,0.4536426325707423,1.523608182407548,-0.01372923733170187,0.9605991657535118,0.7098758125957483,1.150544065740626,0.1452071928853811,0.201220127231614,0.5905387076350709,0.7426307944199279,0.06140250090848044,-0.1362880808316783,0.4453047173669427,1036.739926739927,762.7472527472528,857.4358974358975,1021.831501831502,738.1684981684982,-0.064758,0.151306,0.903687,0.665436,-9.891815,8.239441,319926.739927,124643296.703297,50370329.670330,83.493439,1,2,1,1,2,85.000000
2025-11-11 15:51:52.118,,,,,,,,,,,,,,,,,,,,,,,,,,,,,,,,,,,,,,,,,,/muse/elements/blink
2025-11-11 15:51:52.993,,,,,,,,,,,,,,,,,,,,,,,,,,,,,,,,,,,,,,,,,,/muse/elements/blink
2025-11-11 15:51:53.046,1.608509564165415,1.060160417385057,1.402651282097941,0.8302513290489053,1.519492609439513,0.3366708824203756,1.183805029090615,0.4536426325707423,1.523608182407548,-0.05798342464917369,0.9476512455829559,0.7098758125957483,1.150544065740626,0.04484270461544743,0.2954550218631228,0.5905387076350709,0.7426307944199279,0.03099782878197928,-0.1708920922822473,0.4453047173669427,859.4505494505495,792.5641025641025,778.0586080586081,866.7032967032967,576.996336996337,0.003723,0.289307,0.917542,53.765717,11.177826,24.075317,326373.626374,124772234.432234,50376776.556777,83.493439,1,2,1,1,2,85.000000
2025-11-11 15:51:53.844,,,,,,,,,,,,,,,,,,,,,,,,,,,,,,,,,,,,,,,,,,/muse/elements/blink
2025-11-11 15:51:54.048,1.608509564165415,1.060160417385057,1.402651282097941,0.8302513290489053,1.519492609439513,0.3366708824203756,1.183805029090615,0.4536426325707423,1.523608182407548,-0.05798342464917369,0.9476512455829559,0.7098758125957483,1.150544065740626,0.04484270461544743,0.2954550218631228,0.5905387076350709,0.7426307944199279,0.03099782878197928,-0.1708920922822473,0.4453047173669427,904.981684981685,774.4322344322345,813.919413919414,969.047619047619,654.7619047619048,-0.057678,0.210327,0.970581,-33.421326,23.237915,87.822571,362637.362637,124806886.446886,50230915.750916,96.540451,1,2,1,1,2,85.000000
2025-11-11 15:51:54.206,,,,,,,,,,,,,,,,,,,,,,,,,,,,,,,,,,,,,,,,,,/muse/elements/blink
2025-11-11 15:51:55.042,1.608509564165415,1.344607785634923,1.402651282097941,0.8302513290489053,1.519492609439513,0.8813195239607717,1.183805029090615,0.4536426325707423,1.523608182407548,0.6215812039595584,0.9476512455829559,0.7098758125957483,1.150544065740626,0.1010464391230609,0.2954550218631228,0.5905387076350709,0.7426307944199279,-0.08030325212166124,-0.1708920922822473,0.4453047173669427,684.981684981685,796.5934065934066,812.3076923076924,749.8534798534798,877.985347985348,0.007324,0.186035,1.170654,1.794434,5.622559,51.634827,420659.340659,124788351.648352,50123736.263736,99.205811,1,2,1,1,2,85.000000
2025-11-11 15:51:55.250,,,,,,,,,,,,,,,,,,,,,,,,,,,,,,,,,,,,,,,,,,/muse/elements/blink
2025-11-11 15:51:55.761,,,,,,,,,,,,,,,,,,,,,,,,,,,,,,,,,,,,,,,,,,/muse/elements/blink
2025-11-11 15:51:56.047,1.608509564165415,1.175038533301505,1.402651282097941,0.8302513290489053,1.519492609439513,0.6527218341373348,1.183805029090615,0.4536426325707423,1.523608182407548,0.605099691002399,0.9476512455829559,0.7098758125957483,1.150544065740626,0.1198531348443244,0.2954550218631228,0.5905387076350709,0.7426307944199279,-0.006284461580241266,-0.1708920922822473,0.4453047173669427,844.9450549450549,797.8021978021978,789.3406593406594,814.7252747252747,661.6117216117216,0.038940,0.180298,0.986084,-20.860291,-19.791107,57.683563,306227.106227,124843150.183150,50218827.838828,91.088806,1,2,1,1,2,85.000000
2025-11-11 15:51:56.884,,,,,,,,,,,,,,,,,,,,,,,,,,,,,,,,,,,,,,,,,,/muse/elements/blink
2025-11-11 15:51:57.043,1.608509564165415,1.074822165363106,1.402651282097941,0.8302513290489053,1.519492609439513,0.4606746325012242,1.183805029090615,0.4536426325707423,1.523608182407548,0.5093460952164397,0.9476512455829559,0.7098758125957483,1.150544065740626,0.1675152674331072,0.2954550218631228,0.5905387076350709,0.7426307944199279,-0.1063626239057672,-0.1708920922822473,0.4453047173669427,757.1062271062272,807.8754578754579,780.4761904761905,742.1978021978023,693.4432234432235,0.097961,0.094116,0.958069,13.600311,-27.028656,32.068024,310256.410256,124811721.611722,50308278.388278,86.656654,1,2,1,1,2,85.000000
2025-11-11 15:51:57.694,,,,,,,,,,,,,,,,,,,,,,,,,,,,,,,,,,,,,,,,,,/muse/elements/blink
2025-11-11 15:51:58.046,1.608509564165415,0.896375517768402,1.158066775335823,0.8302513290489053,1.519492609439513,0.6027803741979323,1.08686234606361,0.4536426325707423,1.523608182407548,0.7984071471814767,0.8383965158858337,0.7098758125957483,1.150544065740626,0.1947523015681233,-0.006122379907080771,0.5905387076350709,0.7426307944199279,-0.03701418692588746,-0.4028208815983053,0.4453047173669427,792.1611721611722,795.7875457875458,797.3992673992674,794.981684981685,740.5860805860806,0.141602,-0.054199,0.907104,-20.000458,-0.194397,-19.596710,301391.941392,125298461.538462,50372747.252747,78.785156,1,2,1,1,2,85.000000
2025-11-11 15:51:58.482,,,,,,,,,,,,,,,,,,,,,,,,,,,,,,,,,,,,,,,,,,/muse/elements/blink
2025-11-11 15:51:58.991,,,,,,,,,,,,,,,,,,,,,,,,,,,,,,,,,,,,,,,,,,/muse/elements/blink
2025-11-11 15:51:59.043,1.608509564165415,0.8796428969791819,1.297316406961148,0.8302513290489053,1.519492609439513,0.6675260189952015,1.134420203389135,0.4536426325707423,1.523608182407548,0.7984071471814767,0.8383965158858337,0.7098758125957483,1.150544065740626,0.1075749691728978,-0.02497490600928334,0.5905387076350709,0.7426307944199279,0.03542123398520001,-0.4334601367104817,0.4453047173669427,860.6593406593407,786.1172161172161,839.3040293040293,874.3589743589744,592.3076923076924,-0.551697,0.015076,0.710266,18.542480,89.108582,-25.742645,303003.663004,124225054.945055,50237362.637363,76.814812,1,2,1,1,2,85.000000
2025-11-11 15:52:00.043,1.608509564165415,0.5229063887749735,1.311879676305709,0.8302513290489053,1.519492609439513,0.1077210246344015,1.01184062828423,0.4536426325707423,1.523608182407548,0.08188534148695176,0.6434752079950328,0.7098758125957483,1.150544065740626,0.1522653558988196,-0.09689402781128161,0.5905387076350709,0.7426307944199279,0.08846159506434975,-0.4200258232786572,0.4453047173669427,841.7216117216118,859.8534798534798,671.2820512820513,761.5384615384615,1129.81684981685,-0.680908,-0.038879,0.721680,39.612122,-0.889740,-54.775085,315091.575092,124655384.615385,50370329.670330,76.814812,1,2,1,1,2,85.000000
2025-11-11 15:52:00.305,,,,,,,,,,,,,,,,,,,,,,,,,,,,,,,,,,,,,,,,,,/muse/elements/blink
2025-11-11 15:52:01.043,1.608509564165415,0.5060815805207263,1.311879676305709,0.8302513290489053,1.519492609439513,0.09707888427426188,1.01184062828423,0.4536426325707423,1.523608182407548,-0.1917562499617946,0.6434752079950328,0.7098758125957483,1.150544065740626,0.1564770347626102,-0.09689402781128161,0.5905387076350709,0.7426307944199279,0.1447532882125341,-0.4200258232786572,0.4453047173669427,678.9377289377289,841.7216117216118,763.956043956044,645.8974358974359,672.4908424908425,-0.181580,0.089844,0.900146,-10.003967,-3.910370,-54.603119,451282.051282,125552307.692308,50258315.018315,76.814812,1,2,1,1,2,85.000000
2025-11-11 15:52:01.244,,,,,,,,,,,,,,,,,,,,,,,,,,,,,,,,,,,,,,,,,,/muse/elements/blink
2025-11-11 15:52:02.042,1.608509564165415,0.5060815805207263,1.311879676305709,0.8302513290489053,1.519492609439513,0.09707888427426188,1.01184062828423,0.4536426325707423,1.523608182407548,-0.1917562499617946,0.6434752079950328,0.7098758125957483,1.150544065740626,0.1564770347626102,-0.09689402781128161,0.5905387076350709,0.7426307944199279,0.1447532882125341,-0.4200258232786572,0.4453047173669427,875.5677655677656,774.8351648351648,813.5164835164835,888.4615384615385,627.3626373626374,-0.065674,0.011292,1.135559,1.121521,7.357178,-58.782654,304615.384615,125279926.739927,50097948.717949,76.814812,1,2,1,1,2,85.000000
2025-11-11 15:52:02.052,,,,,,,,,,,,,,,,,,,,,,,,,,,,,,,,,,,,,,,,,,/muse/elements/blink
2025-11-11 15:52:02.749,,,,,,,,,,,,,,,,,,,,,,,,,,,,,,,,,,,,,,,,,,/muse/elements/blink
2025-11-11 15:52:03.043,1.608509564165415,1.149903698909699,1.311879676305709,0.8302513290489053,1.519492609439513,0.8279990652419758,1.01184062828423,0.4536426325707423,1.523608182407548,0.7007308795808772,0.6434752079950328,0.7098758125957483,1.150544065740626,0.1072695370664367,-0.09689402781128161,0.5905387076350709,0.7426307944199279,-0.2135808668360849,-0.4200258232786572,0.4453047173669427,784.1025641025641,794.981684981685,807.0695970695971,789.3406593406594,1133.040293040293,-0.007080,0.033936,1.026733,10.594635,-19.394836,-12.112427,307838.827839,125047032.967033,50076190.476190,76.814812,1,2,1,1,2,85.000000
2025-11-11 15:52:03.790,,,,,,,,,,,,,,,,,,,,,,,,,,,,,,,,,,,,,,,,,,/muse/elements/blink
2025-11-11 15:52:03.960,,,,,,,,,,,,,,,,,,,,,,,,,,,,,,,,,,,,,,,,,,/muse/elements/blink
2025-11-11 15:52:04.043,1.608509564165415,0.7108424836200035,1.390512833071143,0.8302513290489053,1.519492609439513,0.5110358919973529,1.012263523449933,0.4536426325707423,1.523608182407548,0.4911336109709855,0.937891972884369,0.7098758125957483,1.150544065740626,-0.005265147902588413,0.2666776224228332,0.5905387076350709,0.7426307944199279,-0.3143431641455648,-0.6403480247020409,0.4453047173669427,856.6300366300367,791.3553113553114,805.4578754578755,842.5274725274726,713.992673992674,-0.023621,0.127930,0.872620,-11.230164,5.465546,-31.058655,315091.575092,125242857.142857,50194652.014652,76.814812,1,2,1,1,2,85.000000
2025-11-11 15:52:05.043,1.608509564165415,0.671935546818165,0.9601876494198929,0.8302513290489053,1.519492609439513,0.2424894447183766,0.6157658636639609,0.4536426325707423,1.523608182407548,0.3516007959634305,0.5618688243026893,0.7098758125957483,1.150544065740626,-0.07095629031941054,0.05245602932001769,0.5905387076350709,0.7426307944199279,-0.2859048510334195,-0.4322039305628398,0.4453047173669427,716.4102564102565,785.7142857142858,827.2161172161173,720.4395604395604,627.3626373626374,0.085388,0.037842,0.991699,1.405640,12.516174,6.646881,315897.435897,125566813.186813,50197875.457875,78.654755,1,2,1,1,2,85.000000
2025-11-11 15:52:05.170,,,,,,,,,,,,,,,,,,,,,,,,,,,,,,,,,,,,,,,,,,/muse/elements/blink
2025-11-11 15:52:05.552,,,,,,,,,,,,,,,,,,,,,,,,,,,,,,,,,,,,,,,,,,/muse/elements/blink
2025-11-11 15:52:05.872,,,,,,,,,,,,,,,,,,,,,,,,,,,,,,,,,,,,,,,,,,/muse/elements/blink
2025-11-11 15:52:06.051,1.608509564165415,0.8821402019034212,1.067145835870092,0.8302513290489053,1.519492609439513,0.1321863399190717,0.5226573561433988,0.4536426325707423,1.523608182407548,0.6031699502982678,0.2887721346701995,0.7098758125957483,1.150544065740626,0.09712526577899391,0.02624102329470042,0.5905387076350709,0.7426307944199279,-0.1879668921349879,-0.07533689272943965,0.4453047173669427,867.5091575091575,803.040293040293,773.2234432234433,859.047619047619,627.7655677655678,0.103943,0.026428,1.024414,1.846771,-8.403931,60.861206,332014.652015,125761025.641026,50243809.523810,80.132317,1,2,1,1,2,85.000000
2025-11-11 15:52:06.638,,,,,,,,,,,,,,,,,,,,,,,,,,,,,,,,,,,,,,,,,,/muse/elements/blink
2025-11-11 15:52:06.936,,,,,,,,,,,,,,,,,,,,,,,,,,,,,,,,,,,,,,,,,,/muse/elements/blink
2025-11-11 15:52:07.042,1.608509564165415,1.039296208021117,1.119051082545917,0.8302513290489053,1.519492609439513,0.9376247954472284,0.6032430305972807,0.4536426325707423,1.523608182407548,0.7539763379263671,0.2671311038748672,0.7098758125957483,1.150544065740626,0.342698787159903,0.03922008066364818,0.5905387076350709,0.7426307944199279,-0.1554390349160718,-0.09918713363397551,0.4453047173669427,921.9047619047619,792.967032967033,811.5018315018315,915.8608058608058,824.7985347985348,0.114929,0.116272,0.952881,16.149902,-2.743988,78.117676,349743.589744,125553113.553114,50155164.835165,83.553230,1,2,1,1,2,85.000000
2025-11-11 15:52:07.105,,,,,,,,,,,,,,,,,,,,,,,,,,,,,,,,,,,,,,,,,,/muse/elements/blink
2025-11-11 15:52:07.530,,,,,,,,,,,,,,,,,,,,,,,,,,,,,,,,,,,,,,,,,,/muse/elements/blink
2025-11-11 15:52:07.847,,,,,,,,,,,,,,,,,,,,,,,,,,,,,,,,,,,,,,,,,,/muse/elements/blink
2025-11-11 15:52:08.049,1.608509564165415,1.106659007862418,1.119051082545917,0.8302513290489053,1.519492609439513,0.9139801711388733,0.6032430305972807,0.4536426325707423,1.523608182407548,0.8474576191981105,0.2671311038748672,0.7098758125957483,1.150544065740626,0.51587524491141,0.03922008066364818,0.5905387076350709,0.7426307944199279,0.1037580575573456,-0.09918713363397551,0.4453047173669427,807.0695970695971,803.8461538461539,803.040293040293,832.4542124542124,616.080586080586,0.145996,0.199768,0.967224,25.286560,11.888123,33.436279,307838.827839,125379853.479853,50085860.805861,87.650330,1,2,1,1,2,85.000000
2025-11-11 15:52:08.315,,,,,,,,,,,,,,,,,,,,,,,,,,,,,,,,,,,,,,,,,,/muse/elements/blink
2025-11-11 15:52:09.048,1.608509564165415,0.8999089703122013,1.119051082545917,0.8302513290489053,1.519492609439513,0.5016374183394035,0.6032430305972807,0.4536426325707423,1.523608182407548,0.4967939224692413,0.2671311038748672,0.7098758125957483,1.150544065740626,0.3638877193296733,0.03922008066364818,0.5905387076350709,0.7426307944199279,0.1941972063147968,-0.09918713363397551,0.4453047173669427,663.2234432234433,768.3882783882784,855.0183150183151,686.1904761904763,721.6483516483516,0.291748,-0.005127,0.905029,-5.301056,-15.118103,-15.648956,303003.663004,125227545.787546,50096336.996337,87.650330,1,2,1,1,2,85.000000
2025-11-11 15:52:09.251,,,,,,,,,,,,,,,,,,,,,,,,,,,,,,,,,,,,,,,,,,/muse/elements/blink
2025-11-11 15:52:09.781,,,,,,,,,,,,,,,,,,,,,,,,,,,,,,,,,,,,,,,,,,/muse/elements/blink
2025-11-11 15:52:10.046,1.608509564165415,0.9565110469296844,1.119051082545917,0.8302513290489053,1.519492609439513,0.1367749728102786,0.6032430305972807,0.4536426325707423,1.523608182407548,0.4287781368494337,0.2671311038748672,0.7098758125957483,1.150544065740626,0.06730924637962642,0.03922008066364818,0.5905387076350709,0.7426307944199279,-0.09284392780409699,-0.09918713363397551,0.4453047173669427,809.0842490842491,793.3699633699634,819.5604395604396,810.6959706959707,776.8498168498169,0.143921,0.037598,0.875183,-17.667694,-23.335114,-42.901917,301391.941392,125327472.527473,50172087.912088,87.650330,1,2,1,1,2,85.000000
2025-11-11 15:52:10.396,,,,,,,,,,,,,,,,,,,,,,,,,,,,,,,,,,,,,,,,,,/muse/elements/blink
2025-11-11 15:52:10.672,,,,,,,,,,,,,,,,,,,,,,,,,,,,,,,,,,,,,,,,,,/muse/elements/blink
2025-11-11 15:52:11.042,1.608509564165415,1.014044854880733,1.119051082545917,0.8302513290489053,1.519492609439513,0.4163690955226078,0.6032430305972807,0.4536426325707423,1.523608182407548,0.3337625463251693,0.2671311038748672,0.7098758125957483,1.150544065740626,0.02496681164076384,0.03922008066364818,0.5905387076350709,0.7426307944199279,-0.2820626346789035,-0.09918713363397551,0.4453047173669427,796.996336996337,774.0293040293041,816.3369963369963,817.948717948718,673.6996336996338,0.160645,0.046936,0.990173,-7.013245,0.994415,-39.686890,303003.663004,125193699.633700,50150329.670330,87.650330,1,2,1,1,2,85.000000
2025-11-11 15:52:11.503,,,,,,,,,,,,,,,,,,,,,,,,,,,,,,,,,,,,,,,,,,/muse/elements/blink
2025-11-11 15:52:11.887,,,,,,,,,,,,,,,,,,,,,,,,,,,,,,,,,,,,,,,,,,/muse/elements/blink
2025-11-11 15:52:12.048,1.608509564165415,0.8830095025383048,1.653987665681751,0.8302513290489053,1.519492609439513,0.5960509462368049,1.254881704576387,0.4536426325707423,1.523608182407548,0.5478238943188615,0.8808099717959452,0.7098758125957483,1.150544065740626,0.1154988283850749,0.2002967644819064,0.5905387076350709,0.7426307944199279,-0.2294802887780295,-0.3705441231134582,0.4453047173669427,736.5567765567765,828.4249084249085,727.6923076923077,691.8315018315019,653.1501831501831,0.223511,-0.106812,0.814819,-12.882538,16.972351,-58.573303,327179.487179,125491062.271062,50163223.443223,84.091942,1,2,1,1,2,85.000000
2025-11-11 15:52:12.202,,,,,,,,,,,,,,,,,,,,,,,,,,,,,,,,,,,,,,,,,,/muse/elements/blink
2025-11-11 15:52:12.499,,,,,,,,,,,,,,,,,,,,,,,,,,,,,,,,,,,,,,,,,,/muse/elements/blink
2025-11-11 15:52:13.043,1.608509564165415,1.104123433808472,1.697407725588229,0.8302513290489053,1.519492609439513,0.853753986199053,1.255930914256071,0.4536426325707423,1.523608182407548,0.6497253391065995,0.8224896731048325,0.7098758125957483,1.150544065740626,0.1027998536224692,0.1645801697440055,0.5905387076350709,0.7426307944199279,-0.2576660767048008,-0.3578735558091266,0.4453047173669427,809.8901098901099,787.7289377289378,806.2637362637363,799.4139194139194,663.6263736263736,0.184631,0.134338,0.973938,-4.157104,-12.157288,-48.247833,337655.677656,125736849.816850,50180146.520147,79.745430,1,2,1,1,2,85.000000
2025-11-11 15:52:13.710,,,,,,,,,,,,,,,,,,,,,,,,,,,,,,,,,,,,,,,,,,/muse/elements/blink
2025-11-11 15:52:14.043,1.608509564165415,0.90131896071883,1.697407725588229,0.8302513290489053,1.519492609439513,0.471062132831812,1.255930914256071,0.4536426325707423,1.523608182407548,0.597322715169015,0.8224896731048325,0.7098758125957483,1.150544065740626,0.2082233081902266,0.1645801697440055,0.5905387076350709,0.7426307944199279,-0.1753978520329356,-0.3578735558091266,0.4453047173669427,726.4835164835165,824.3956043956044,751.8681318681319,714.3956043956044,674.1025641025641,0.107910,0.041870,0.992798,-5.547791,-11.334839,-65.960388,303809.523810,125927032.967033,50145494.505495,77.587128,1,2,1,1,2,85.000000
2025-11-11 15:52:14.133,,,,,,,,,,,,,,,,,,,,,,,,,,,,,,,,,,,,,,,,,,/muse/elements/blink
2025-11-11 15:52:14.557,,,,,,,,,,,,,,,,,,,,,,,,,,,,,,,,,,,,,,,,,,/muse/elements/blink
2025-11-11 15:52:15.042,1.608509564165415,1.178386084247641,1.697407725588229,0.8302513290489053,1.519492609439513,0.7521251237095089,1.255930914256071,0.4536426325707423,1.523608182407548,0.440873048724651,0.8224896731048325,0.7098758125957483,1.150544065740626,0.1458371099008203,0.1645801697440055,0.5905387076350709,0.7426307944199279,-0.2170317323650046,-0.3578735558091266,0.4453047173669427,803.4432234432235,787.7289377289378,817.948717948718,825.2014652014652,727.2893772893773,0.072144,0.059021,0.889038,3.843079,12.404022,-31.514740,305421.245421,125561172.161172,50060879.120879,76.785431,1,2,1,1,2,85.000000
2025-11-11 15:52:15.960,,,,,,,,,,,,,,,,,,,,,,,,,,,,,,,,,,,,,,,,,,/muse/elements/blink
2025-11-11 15:52:16.043,1.608509564165415,0.6000397605027186,1.023112752344226,0.8302513290489053,1.519492609439513,0.1860465793246735,0.4439015592359695,0.4536426325707423,1.523608182407548,0.2750863600666815,0.4693205564153364,0.7098758125957483,1.150544065740626,0.1204359802649347,-0.05133471841272855,0.5905387076350709,0.7426307944199279,-0.3159638647220411,-0.3847918514668175,0.4453047173669427,829.2307692307693,792.967032967033,785.3113553113553,838.4981684981685,661.6117216117216,0.217102,0.135986,0.690369,23.065948,-0.829926,3.783264,313479.853480,125458827.838828,50042344.322344,77.782494,1,2,1,1,2,85.000000
2025-11-11 15:52:16.258,,,,,,,,,,,,,,,,,,,,,,,,,,,,,,,,,,,,,,,,,,/muse/elements/blink
2025-11-11 15:52:16.766,,,,,,,,,,,,,,,,,,,,,,,,,,,,,,,,,,,,,,,,,,/muse/elements/blink
2025-11-11 15:52:17.043,1.608509564165415,1.172999738028838,1.265197879302028,0.8302513290489053,1.519492609439513,1.292961936542999,0.7596261514730035,0.4536426325707423,1.523608182407548,1.089292817240042,0.7473040383654934,0.7098758125957483,1.150544065740626,0.408430527731302,-0.003638214330327184,0.5905387076350709,0.7426307944199279,-0.02030671642221731,-0.4202902730762729,0.4453047173669427,783.2967032967033,803.4432234432235,785.7142857142858,790.5494505494506,583.4432234432235,0.057129,0.032654,0.949646,19.544373,-24.927673,17.136841,315897.435897,125292014.652015,50145494.505495,79.951004,1,2,1,1,2,85.000000
2025-11-11 15:52:17.194,,,,,,,,,,,,,,,,,,,,,,,,,,,,,,,,,,,,,,,,,,/muse/elements/blink
2025-11-11 15:52:17.703,,,,,,,,,,,,,,,,,,,,,,,,,,,,,,,,,,,,,,,,,,/muse/elements/blink
2025-11-11 15:52:18.050,1.608509564165415,1.151146527043955,1.401691305230303,0.8302513290489053,1.519492609439513,1.310045068215341,0.9146653042532719,0.4536426325707423,1.523608182407548,1.089292817240042,0.7473040383654934,0.7098758125957483,1.150544065740626,0.3751117769158208,0.01351791617585871,0.5905387076350709,0.7426307944199279,0.08219626700107338,-0.4954377408634535,0.4453047173669427,784.1025641025641,815.1282051282052,754.2857142857143,761.1355311355312,685.3846153846154,0.021118,0.207458,0.980042,1.629944,14.265747,66.969757,323956.043956,125344395.604396,50161611.721612,80.482620,1,2,1,1,2,85.000000
2025-11-11 15:52:18.085,,,,,,,,,,,,,,,,,,,,,,,,,,,,,,,,,,,,,,,,,,/muse/elements/blink
2025-11-11 15:52:18.703,,,,,,,,,,,,,,,,,,,,,,,,,,,,,,,,,,,,,,,,,,/muse/elements/blink
2025-11-11 15:52:18.916,,,,,,,,,,,,,,,,,,,,,,,,,,,,,,,,,,,,,,,,,,/muse/elements/blink
2025-11-11 15:52:19.042,1.608509564165415,0.2987859871865116,1.401691305230303,0.8302513290489053,1.519492609439513,-0.2606176946412995,0.9146653042532719,0.4536426325707423,1.523608182407548,0.2830288725277463,0.7473040383654934,0.7098758125957483,1.150544065740626,0.09289446820626905,0.01351791617585871,0.5905387076350709,0.7426307944199279,-0.004690004291363916,-0.4954377408634535,0.4453047173669427,819.96336996337,784.1025641025641,812.3076923076924,834.8717948717949,805.8608058608058,0.319031,0.216553,0.858887,11.200256,10.190887,14.572296,365860.805861,125510402.930403,50160000.000000,76.508850,1,2,1,1,2,85.000000
2025-11-11 15:52:19.529,,,,,,,,,,,,,,,,,,,,,,,,,,,,,,,,,,,,,,,,,,/muse/elements/blink
2025-11-11 15:52:20.042,1.608509564165415,0.2987859871865116,1.401691305230303,0.8302513290489053,1.519492609439513,-0.2606176946412995,0.9146653042532719,0.4536426325707423,1.523608182407548,0.2830288725277463,0.7473040383654934,0.7098758125957483,1.150544065740626,0.09289446820626905,0.01351791617585871,0.5905387076350709,0.7426307944199279,-0.004690004291363916,-0.4954377408634535,0.4453047173669427,812.7106227106227,796.5934065934066,797.3992673992674,790.5494505494506,1151.575091575092,0.597595,-0.059937,0.932312,11.775970,-6.557159,59.649963,305421.245421,125810989.010989,50118095.238095,76.632713,1,2,1,1,2,85.000000
2025-11-11 15:52:20.334,,,,,,,,,,,,,,,,,,,,,,,,,,,,,,,,,,,,,,,,,,/muse/elements/blink
2025-11-11 15:52:20.950,,,,,,,,,,,,,,,,,,,,,,,,,,,,,,,,,,,,,,,,,,/muse/elements/blink
2025-11-11 15:52:21.046,1.608509564165415,0.6295701003808157,0.8037691872655462,0.8302513290489053,1.519492609439513,-0.08514168007243784,0.5121311139514073,0.4536426325707423,1.523608182407548,-0.01637246853221595,0.4030288412651382,0.7098758125957483,1.150544065740626,0.1356143132360607,0.2741204041783694,0.5905387076350709,0.7426307944199279,-0.06153184443744528,0.1320348247049664,0.4453047173669427,835.6776556776557,798.2051282051282,792.5641025641025,798.6080586080586,627.7655677655678,0.219971,0.150024,0.928833,14.183502,6.803894,57.085419,303809.523810,125164688.644689,50058461.538462,77.769928,1,2,1,1,2,85.000000
2025-11-11 15:52:21.736,,,,,,,,,,,,,,,,,,,,,,,,,,,,,,,,,,,,,,,,,,/muse/elements/blink
2025-11-11 15:52:22.043,1.608509564165415,0.851603347354105,0.9759251617006597,0.8302513290489053,1.519492609439513,0.05091694085490392,0.2491705433832309,0.4536426325707423,1.523608182407548,0.02190585421275097,0.4547401285299387,0.7098758125957483,1.150544065740626,0.1517205400405895,0.173836468587024,0.5905387076350709,0.7426307944199279,-0.1047691542195485,0.2272291484338394,0.4453047173669427,820.3663003663004,790.5494505494506,802.6373626373627,804.6520146520147,879.1941391941392,0.299744,0.143738,0.980225,15.678864,-0.583191,21.817322,302197.802198,125161465.201465,50020586.080586,88.446884,1,2,1,1,2,85.000000
2025-11-11 15:52:22.352,,,,,,,,,,,,,,,,,,,,,,,,,,,,,,,,,,,,,,,,,,/muse/elements/blink
2025-11-11 15:52:22.675,,,,,,,,,,,,,,,,,,,,,,,,,,,,,,,,,,,,,,,,,,/muse/elements/blink
2025-11-11 15:52:23.042,1.608509564165415,0.791371740414997,1.139256588062593,0.8302513290489053,1.519492609439513,0.4292676960445909,0.6400861669027966,0.4536426325707423,1.523608182407548,0.2695072632845824,0.6842683852894803,0.7098758125957483,1.150544065740626,-0.1398124222947567,0.08508873728848516,0.5905387076350709,0.7426307944199279,-0.2596200925275813,-0.143967330755466,0.4453047173669427,958.1684981684982,803.040293040293,761.941391941392,917.0695970695971,763.1501831501831,-0.253906,-0.037720,1.266235,-11.962891,45.630951,-37.593384,302197.802198,124385421.245421,50016556.776557,110.636169,1,2,1,1,2,85.000000
2025-11-11 15:52:23.121,,,,,,,,,,,,,,,,,,,,,,,,,,,,,,,,,,,,,,,,,,/muse/elements/blink
2025-11-11 15:52:23.593,,,,,,,,,,,,,,,,,,,,,,,,,,,,,,,,,,,,,,,,,,/muse/elements/blink
2025-11-11 15:52:24.049,1.608509564165415,0.7883124579368765,1.225808987630547,0.8302513290489053,1.519492609439513,0.6387597400463559,0.9893778909222606,0.4536426325707423,1.523608182407548,0.2695072632845824,0.6842683852894803,0.7098758125957483,1.150544065740626,-0.07029144539083808,0.1656731538123118,0.5905387076350709,0.7426307944199279,-0.3568375884933904,-0.2911259058846632,0.4453047173669427,778.8644688644689,804.2490842490843,811.9047619047619,789.3406593406594,589.0842490842491,0.065063,0.072449,1.039978,-3.753357,-31.155853,-39.305573,300586.080586,124333040.293040,50054432.234432,106.195229,1,2,1,1,2,85.000000
2025-11-11 15:52:25.042,1.608509564165415,0.5947134702145315,1.227705683571952,0.8302513290489053,1.519492609439513,-0.1692891669375107,1.000826498671432,0.4536426325707423,1.523608182407548,0.3662094500646464,0.6710284053827451,0.7098758125957483,1.150544065740626,0.2931840779601649,0.1647081433025174,0.5905387076350709,0.7426307944199279,0.2799988537992045,-0.3074873256552349,0.4453047173669427,776.8498168498169,839.3040293040293,753.0769230769231,781.2820512820513,760.7326007326008,-0.088867,0.065979,0.946655,8.575897,-22.445374,-100.361176,315897.435897,124619926.739927,50126959.706960,106.195229,1,2,1,1,2,85.000000
2025-11-11 15:52:25.211,,,,,,,,,,,,,,,,,,,,,,,,,,,,,,,,,,,,,,,,,,/muse/elements/blink
2025-11-11 15:52:25.615,,,,,,,,,,,,,,,,,,,,,,,,,,,,,,,,,,,,,,,,,,/muse/elements/blink
2025-11-11 15:52:26.042,1.608509564165415,0.5947134702145315,1.227705683571952,0.8302513290489053,1.519492609439513,-0.1692891669375107,1.000826498671432,0.4536426325707423,1.523608182407548,0.3662094500646464,0.6710284053827451,0.7098758125957483,1.150544065740626,0.2931840779601649,0.1647081433025174,0.5905387076350709,0.7426307944199279,0.2799988537992045,-0.3074873256552349,0.4453047173669427,828.4249084249085,796.1904761904763,797.3992673992674,822.3809523809524,772.4175824175825,0.027466,0.078796,0.986511,-1.809387,33.309174,-44.143066,387619.047619,125192087.912088,50100366.300366,104.627930,1,2,1,1,2,85.000000
2025-11-11 15:52:26.148,,,,,,,,,,,,,,,,,,,,,,,,,,,,,,,,,,,,,,,,,,/muse/elements/blink
2025-11-11 15:52:27.043,1.608509564165415,0.5947134702145315,1.227705683571952,0.8302513290489053,1.519492609439513,-0.1692891669375107,1.000826498671432,0.4536426325707423,1.523608182407548,0.3662094500646464,0.6710284053827451,0.7098758125957483,1.150544065740626,0.2931840779601649,0.1647081433025174,0.5905387076350709,0.7426307944199279,0.2799988537992045,-0.3074873256552349,0.4453047173669427,816.3369963369963,801.025641025641,815.5311355311355,831.2454212454213,624.9450549450549,-0.218628,-0.008057,1.085510,-14.146118,12.134857,-31.611938,303809.523810,125433040.293040,50171282.051282,104.627930,1,2,1,1,2,85.000000
2025-11-11 15:52:28.042,1.608509564165415,-0.1777473037097085,0.2930019078405005,0.8302513290489053,1.519492609439513,-0.7488349568943502,-0.2375978389491831,0.4536426325707423,1.523608182407548,-0.1920178827692948,-0.1048144513263042,0.7098758125957483,1.150544065740626,-0.1729581241417399,-0.1693118906046945,0.5905387076350709,0.7426307944199279,-0.06503478273893391,-0.3799860618877704,0.4453047173669427,798.6080586080586,788.5347985347986,813.5164835164835,809.8901098901099,959.3772893772895,-0.221436,-0.052856,1.051697,6.340332,-27.110901,-16.994781,306227.106227,125593406.593407,50223663.003663,104.627930,1,2,1,1,2,85.000000
2025-11-11 15:52:28.577,,,,,,,,,,,,,,,,,,,,,,,,,,,,,,,,,,,,,,,,,,/muse/elements/blink
2025-11-11 15:52:29.043,1.608509564165415,-0.1786664270887161,0.3522011785739577,0.8302513290489053,1.519492609439513,-0.7427125547240536,-0.2528457416052627,0.4536426325707423,1.523608182407548,-0.07614041255447108,0.0398089195083443,0.7098758125957483,1.150544065740626,-0.1520859309511884,-0.1798887540182963,0.5905387076350709,0.7426307944199279,-0.002870274169430526,-0.3614396008888749,0.4453047173669427,855.4212454212454,757.5091575091575,780.8791208791209,864.2857142857143,774.8351648351648,-0.108948,0.102722,0.884888,-2.930908,5.936584,-52.801208,316703.296703,125759413.919414,50210769.230769,104.627930,1,2,1,1,2,85.000000
2025-11-11 15:52:29.044,,,,,,,,,,,,,,,,,,,,,,,,,,,,,,,,,,,,,,,,,,/muse/elements/blink
2025-11-11 15:52:29.468,,,,,,,,,,,,,,,,,,,,,,,,,,,,,,,,,,,,,,,,,,/muse/elements/blink
2025-11-11 15:52:30.043,1.608509564165415,-0.1312028129973168,0.3478960515175668,0.8302513290489053,1.519492609439513,-0.6276595156053689,-0.2562234341672623,0.4536426325707423,1.523608182407548,-0.1040569835903324,-0.0005854141565458479,0.7098758125957483,1.150544065740626,-0.06169045404624478,-0.1284936112839239,0.5905387076350709,0.7426307944199279,0.07395031016623096,-0.3672933649124136,0.4453047173669427,865.4945054945056,795.3846153846154,794.5787545787546,886.4468864468864,619.3040293040293,-0.299133,0.146729,0.914612,13.712463,8.777771,7.073059,316703.296703,125950402.930403,50223663.003663,99.261604,1,2,1,1,2,85.000000
2025-11-11 15:52:30.086,,,,,,,,,,,,,,,,,,,,,,,,,,,,,,,,,,,,,,,,,,/muse/elements/blink
2025-11-11 15:52:30.405,,,,,,,,,,,,,,,,,,,,,,,,,,,,,,,,,,,,,,,,,,/muse/elements/blink
2025-11-11 15:52:31.042,1.608509564165415,-0.1312028129973168,0.3478960515175668,0.8302513290489053,1.519492609439513,-0.6276595156053689,-0.2562234341672623,0.4536426325707423,1.523608182407548,-0.1040569835903324,-0.0005854141565458479,0.7098758125957483,1.150544065740626,-0.06169045404624478,-0.1284936112839239,0.5905387076350709,0.7426307944199279,0.07395031016623096,-0.3672933649124136,0.4453047173669427,807.4725274725275,823.992673992674,789.3406593406594,822.3809523809524,1041.172161172161,-0.519592,0.103943,0.994629,-21.204224,8.127289,32.389526,302197.802198,124838315.018315,50199487.179487,86.922188,1,2,1,1,2,85.000000
2025-11-11 15:52:31.805,,,,,,,,,,,,,,,,,,,,,,,,,,,,,,,,,,,,,,,,,,/muse/elements/blink
2025-11-11 15:52:32.052,1.608509564165415,0.5397780933735303,0.3478960515175668,0.8302513290489053,1.519492609439513,0.3628691509322622,-0.2562234341672623,0.4536426325707423,1.523608182407548,0.6541843293169568,-0.0005854141565458479,0.7098758125957483,1.150544065740626,0.5687087636976004,-0.1284936112839239,0.5905387076350709,0.7426307944199279,0.3314038179049583,-0.3672933649124136,0.4453047173669427,852.6007326007326,794.1758241758242,777.6556776556777,784.1025641025641,1048.424908424908,0.063171,0.303833,1.092651,-35.402679,-4.904785,35.253143,339267.399267,125576483.516484,50201904.761905,79.011269,1,2,1,1,2,85.000000
2025-11-11 15:52:32.700,,,,,,,,,,,,,,,,,,,,,,,,,,,,,,,,,,,,,,,,,,/muse/elements/blink
2025-11-11 15:52:33.052,1.608509564165415,0.5397780933735303,0.3478960515175668,0.8302513290489053,1.519492609439513,0.3628691509322622,-0.2562234341672623,0.4536426325707423,1.523608182407548,0.6541843293169568,-0.0005854141565458479,0.7098758125957483,1.150544065740626,0.5687087636976004,-0.1284936112839239,0.5905387076350709,0.7426307944199279,0.3314038179049583,-0.3672933649124136,0.4453047173669427,811.9047619047619,801.025641025641,748.2417582417582,776.8498168498169,624.9450549450549,-0.112732,0.012695,0.947632,10.602112,2.011261,35.941010,372307.692308,125754578.754579,50130989.010989,74.767776,1,2,1,1,2,85.000000
2025-11-11 15:52:33.318,,,,,,,,,,,,,,,,,,,,,,,,,,,,,,,,,,,,,,,,,,/muse/elements/blink
2025-11-11 15:52:34.042,1.608509564165415,0.5397780933735303,0.3478960515175668,0.8302513290489053,1.519492609439513,0.3628691509322622,-0.2562234341672623,0.4536426325707423,1.523608182407548,0.6541843293169568,-0.0005854141565458479,0.7098758125957483,1.150544065740626,0.5687087636976004,-0.1284936112839239,0.5905387076350709,0.7426307944199279,0.3314038179049583,-0.3672933649124136,0.4453047173669427,780.8791208791209,799.0109890109891,791.7582417582418,802.6373626373627,1075.421245421245,0.072327,0.151611,0.951111,7.431946,1.600037,50.864716,386813.186813,125602271.062271,49974652.014652,72.561699,1,2,1,1,2,85.000000
2025-11-11 15:52:34.447,,,,,,,,,,,,,,,,,,,,,,,,,,,,,,,,,,,,,,,,,,/muse/elements/blink
2025-11-11 15:52:34.767,,,,,,,,,,,,,,,,,,,,,,,,,,,,,,,,,,,,,,,,,,/muse/elements/blink
2025-11-11 15:52:35.045,1.608509564165415,0.9350343956775584,0.3478960515175668,0.8302513290489053,1.519492609439513,0.4130249681013716,-0.2562234341672623,0.4536426325707423,1.523608182407548,0.3147665606556553,-0.0005854141565458479,0.7098758125957483,1.150544065740626,0.2641906521332832,-0.1284936112839239,0.5905387076350709,0.7426307944199279,-0.1702057855948739,-0.3672933649124136,0.4453047173669427,837.6923076923077,799.8168498168499,774.4322344322345,828.8278388278388,665.2380952380953,-0.182129,0.218445,0.920105,7.379608,27.252960,27.574463,336849.816850,125266227.106227,49961758.241758,72.561699,1,2,1,1,2,85.000000
2025-11-11 15:52:35.897,,,,,,,,,,,,,,,,,,,,,,,,,,,,,,,,,,,,,,,,,,/muse/elements/blink
2025-11-11 15:52:36.043,1.608509564165415,1.11472771850467,0.3478960515175668,0.8302513290489053,1.519492609439513,0.7783388028196253,-0.2562234341672623,0.4536426325707423,1.523608182407548,0.6011082737894322,-0.0005854141565458479,0.7098758125957483,1.150544065740626,0.1673096809816101,-0.1284936112839239,0.5905387076350709,0.7426307944199279,-0.2580381808829296,-0.3672933649124136,0.4453047173669427,879.5970695970697,775.6410256410256,818.3516483516484,896.5201465201466,548.7912087912088,-0.277954,0.159607,1.179321,8.942261,40.299988,-25.077209,306227.106227,125107472.527473,49981904.761905,72.561699,1,2,1,1,2,85.000000
2025-11-11 15:52:36.775,,,,,,,,,,,,,,,,,,,,,,,,,,,,,,,,,,,,,,,,,,/muse/elements/blink
2025-11-11 15:52:37.042,1.608509564165415,1.070520692121115,0.3478960515175668,0.8302513290489053,1.519492609439513,0.9930027445302558,-0.2562234341672623,0.4536426325707423,1.523608182407548,0.5645610340618263,-0.0005854141565458479,0.7098758125957483,1.150544065740626,0.1051909368029676,-0.1284936112839239,0.5905387076350709,0.7426307944199279,-0.1501204134519148,-0.3672933649124136,0.4453047173669427,734.9450549450549,803.8461538461539,771.6117216117216,728.901098901099,1121.758241758242,0.219238,0.152161,0.992432,-10.101166,-17.921906,-30.348358,299780.219780,125566813.186813,50064102.564103,76.320702,1,2,1,1,2,85.000000
2025-11-11 15:52:37.220,,,,,,,,,,,,,,,,,,,,,,,,,,,,,,,,,,,,,,,,,,/muse/elements/blink
2025-11-11 15:52:37.820,,,,,,,,,,,,,,,,,,,,,,,,,,,,,,,,,,,,,,,,,,/muse/elements/blink
2025-11-11 15:52:38.049,1.608509564165415,1.074507508442976,1.628332326800028,0.8302513290489053,1.519492609439513,0.5612235135644408,1.226243764025893,0.4536426325707423,1.523608182407548,0.6221716149221042,0.8013633478610629,0.7098758125957483,1.150544065740626,0.01201036517237311,0.09048924090142364,0.5905387076350709,0.7426307944199279,-0.3672914178626557,-0.4914405173425593,0.4453047173669427,828.021978021978,795.3846153846154,797.3992673992674,811.0989010989011,933.1868131868132,-0.008240,0.055603,0.954895,-4.650574,-13.615265,-42.423401,302197.802198,125516043.956044,50042344.322344,77.967728,1,2,1,1,2,85.000000
2025-11-11 15:52:38.423,,,,,,,,,,,,,,,,,,,,,,,,,,,,,,,,,,,,,,,,,,/muse/elements/blink
2025-11-11 15:52:39.051,1.608509564165415,0.7253904594182994,1.583412780252489,0.8302513290489053,1.519492609439513,0.4975146398532389,1.239656831655535,0.4536426325707423,1.523608182407548,0.6551653698862684,0.903181407581979,0.7098758125957483,1.150544065740626,-0.08231185332906973,0.1525068895937239,0.5905387076350709,0.7426307944199279,-0.3185167986932177,-0.5775997781897695,0.4453047173669427,682.967032967033,828.4249084249085,745.8241758241759,670.4761904761905,678.1318681318681,0.106689,0.055481,0.965820,-8.538513,-2.011261,-47.515106,323956.043956,125405641.025641,49977875.457875,79.949158,1,2,1,1,2,85.000000
2025-11-11 15:52:39.319,,,,,,,,,,,,,,,,,,,,,,,,,,,,,,,,,,,,,,,,,,/muse/elements/blink
2025-11-11 15:52:39.830,,,,,,,,,,,,,,,,,,,,,,,,,,,,,,,,,,,,,,,,,,/muse/elements/blink
2025-11-11 15:52:40.042,1.608509564165415,0.5119725036613331,1.456559055053902,0.8302513290489053,1.519492609439513,0.1782407148284595,1.205259869616296,0.4536426325707423,1.523608182407548,0.1676921261299376,0.758693630668137,0.7098758125957483,1.150544065740626,-0.1734377384676395,0.1560300795737854,0.5905387076350709,0.7426307944199279,-0.2258147409711695,-0.685537898619813,0.4453047173669427,803.8461538461539,790.1465201465202,815.1282051282052,825.2014652014652,1128.205128205128,0.027588,-0.007202,0.961487,-5.099182,2.758942,-49.451599,369084.249084,125549084.249084,49987545.787546,80.532768,1,2,1,1,2,85.000000
2025-11-11 15:52:41.043,1.608509564165415,0.7758810788036654,0.4127799807057493,0.8302513290489053,1.519492609439513,0.3037737877166465,0.007505388830266558,0.4536426325707423,1.523608182407548,0.4774662697314132,0.2469109321982583,0.7098758125957483,1.150544065740626,0.05548106004049443,-0.05084076578896871,0.5905387076350709,0.7426307944199279,-0.4110023257617766,-0.2145086770070574,0.4453047173669427,511.3186813186813,904.1758241758242,721.2454212454213,491.978021978022,542.7472527472528,-0.011353,0.013794,1.168945,-12.411499,19.701385,-81.766357,303003.663004,125749743.589744,50010109.890110,87.270149,1,2,1,1,2,85.000000
2025-11-11 15:52:41.236,,,,,,,,,,,,,,,,,,,,,,,,,,,,,,,,,,,,,,,,,,/muse/elements/blink
2025-11-11 15:52:42.042,1.608509564165415,0.4047969237337349,0.5852804262909813,0.8302513290489053,1.519492609439513,-0.1230444988896089,0.133251897370222,0.4536426325707423,1.523608182407548,0.2375548321233947,0.3036954231395709,0.7098758125957483,1.150544065740626,0.04450490960491979,-0.01095800496179862,0.5905387076350709,0.7426307944199279,-0.3647628488381877,-0.2034513363522481,0.4453047173669427,806.2637362637363,803.040293040293,795.3846153846154,817.1428571428571,746.2271062271062,-0.001770,0.050842,0.928528,9.510498,-17.174225,-58.326569,304615.384615,125810183.150183,50001245.421245,103.121048,1,2,1,1,2,85.000000
2025-11-11 15:52:42.071,,,,,,,,,,,,,,,,,,,,,,,,,,,,,,,,,,,,,,,,,,/muse/elements/blink
2025-11-11 15:52:42.959,,,,,,,,,,,,,,,,,,,,,,,,,,,,,,,,,,,,,,,,,,/muse/elements/blink
2025-11-11 15:52:43.042,1.608509564165415,0.3692764510181247,0.720588313810926,0.8302513290489053,1.519492609439513,-0.1921601035557779,0.1940948336716535,0.4536426325707423,1.523608182407548,0.1104474244099434,0.3008897581412432,0.7098758125957483,1.150544065740626,0.01977733964709431,0.04127074779234531,0.5905387076350709,0.7426307944199279,-0.3577272888056914,-0.1999423348205746,0.4453047173669427,812.7106227106227,796.996336996337,793.3699633699634,785.7142857142858,887.2527472527473,0.173950,0.029114,0.937988,9.248810,-19.506989,-12.546082,311868.131868,125860952.380952,50018168.498168,103.121048,1,2,1,1,2,85.000000
2025-11-11 15:52:43.491,,,,,,,,,,,,,,,,,,,,,,,,,,,,,,,,,,,,,,,,,,/muse/elements/blink
2025-11-11 15:52:44.043,1.608509564165415,1.279806299517394,0.720588313810926,0.8302513290489053,1.519492609439513,0.8330511335047985,0.1940948336716535,0.4536426325707423,1.523608182407548,0.6685561724891186,0.3008897581412432,0.7098758125957483,1.150544065740626,0.2447859185824934,0.04127074779234531,0.5905387076350709,0.7426307944199279,-0.2543103898495022,-0.1999423348205746,0.4453047173669427,799.4139194139194,802.2344322344322,793.7728937728938,803.4432234432235,1022.637362637363,-0.066895,0.116089,0.907288,-2.960815,-1.413116,15.417175,317509.157509,125778754.578755,50053626.373626,103.121048,1,2,1,1,2,85.000000
2025-11-11 15:52:44.617,,,,,,,,,,,,,,,,,,,,,,,,,,,,,,,,,,,,,,,,,,/muse/elements/blink
2025-11-11 15:52:44.893,,,,,,,,,,,,,,,,,,,,,,,,,,,,,,,,,,,,,,,,,,/muse/elements/blink
2025-11-11 15:52:45.043,1.608509564165415,1.283666375198135,0.720588313810926,0.8302513290489053,1.519492609439513,0.8496852239926683,0.1940948336716535,0.4536426325707423,1.523608182407548,0.6685561724891186,0.3008897581412432,0.7098758125957483,1.150544065740626,0.2198244506073096,0.04127074779234531,0.5905387076350709,0.7426307944199279,-0.2313548160821653,-0.1999423348205746,0.4453047173669427,814.3223443223443,799.0109890109891,803.040293040293,798.6080586080586,564.1025641025641,0.153503,0.086914,0.934753,6.355286,-0.186920,20.441589,315897.435897,126259047.619048,50076996.336996,87.491791,1,2,1,1,2,85.000000
2025-11-11 15:52:45.509,,,,,,,,,,,,,,,,,,,,,,,,,,,,,,,,,,,,,,,,,,/muse/elements/blink
2025-11-11 15:52:46.042,1.608509564165415,1.283666375198135,0.720588313810926,0.8302513290489053,1.519492609439513,0.8496852239926683,0.1940948336716535,0.4536426325707423,1.523608182407548,0.6685561724891186,0.3008897581412432,0.7098758125957483,1.150544065740626,0.2198244506073096,0.04127074779234531,0.5905387076350709,0.7426307944199279,-0.2313548160821653,-0.1999423348205746,0.4453047173669427,634.2124542124542,805.4578754578755,803.040293040293,668.4615384615385,862.2710622710623,0.231567,0.061829,0.913391,8.762817,11.110535,40.382233,323956.043956,125913333.333333,49941611.721612,83.106758,1,2,1,1,2,85.000000
2025-11-11 15:52:46.254,,,,,,,,,,,,,,,,,,,,,,,,,,,,,,,,,,,,,,,,,,/muse/elements/blink
2025-11-11 15:52:46.957,,,,,,,,,,,,,,,,,,,,,,,,,,,,,,,,,,,,,,,,,,/muse/elements/blink
2025-11-11 15:52:47.042,1.608509564165415,0.8806827670676076,1.42250424186166,0.8302513290489053,1.519492609439513,0.7048866540577645,0.7169333791010425,0.4536426325707423,1.523608182407548,0.769285377247107,0.4478867789950645,0.7098758125957483,1.150544065740626,-0.1879881838149468,-0.08988312215975394,0.5905387076350709,0.7426307944199279,-0.2138648005330541,-0.4197602294057347,0.4453047173669427,843.7362637362637,795.3846153846154,800.6227106227107,819.96336996337,580.2197802197802,0.297852,0.130737,0.990417,-1.816864,-0.463562,53.638611,379560.439560,125572454.212454,49823956.043956,83.106758,1,2,1,1,2,85.000000
2025-11-11 15:52:47.468,,,,,,,,,,,,,,,,,,,,,,,,,,,,,,,,,,,,,,,,,,/muse/elements/blink
2025-11-11 15:52:47.746,,,,,,,,,,,,,,,,,,,,,,,,,,,,,,,,,,,,,,,,,,/muse/elements/blink
2025-11-11 15:52:48.045,1.608509564165415,0.6350203894846729,1.177044490845068,0.8302513290489053,1.519492609439513,0.226985664818795,0.189870725772414,0.4536426325707423,1.523608182407548,0.3056257004837072,0.2700256320009479,0.7098758125957483,1.150544065740626,0.2231483691199203,0.04366221132429504,0.5905387076350709,0.7426307944199279,0.3247667583012261,-0.1873440970186548,0.4453047173669427,817.1428571428571,801.4285714285714,790.1465201465202,810.2930402930403,607.2161172161173,0.121338,0.106506,0.968384,12.987213,-5.824432,56.891022,368278.388278,125574065.934066,49829597.069597,82.467506,1,2,1,1,2,85.000000
2025-11-11 15:52:48.174,,,,,,,,,,,,,,,,,,,,,,,,,,,,,,,,,,,,,,,,,,/muse/elements/blink
2025-11-11 15:52:48.537,,,,,,,,,,,,,,,,,,,,,,,,,,,,,,,,,,,,,,,,,,/muse/elements/blink
2025-11-11 15:52:49.042,1.608509564165415,0.68472600582376,1.187385041712906,0.8302513290489053,1.519492609439513,0.5034055808715383,0.1893312222902243,0.4536426325707423,1.523608182407548,0.4697708943559538,0.1787071630175584,0.7098758125957483,1.150544065740626,0.4447799911231258,0.03551560781364804,0.5905387076350709,0.7426307944199279,0.5964879328220872,-0.1496113231366979,0.4453047173669427,647.5091575091575,796.5934065934066,798.6080586080586,645.4945054945055,880.8058608058608,0.158203,0.150208,1.000732,8.299255,22.594910,42.296295,305421.245421,125341978.021978,49690989.010989,82.451256,1,2,1,1,2,85.000000
2025-11-11 15:52:49.281,,,,,,,,,,,,,,,,,,,,,,,,,,,,,,,,,,,,,,,,,,/muse/elements/blink
2025-11-11 15:52:50.042,1.608509564165415,0.2570108559263533,0.9364486676801308,0.8302513290489053,1.519492609439513,0.4706825884318375,0.4840944338455495,0.4536426325707423,1.523608182407548,0.4044730309822349,-0.003094064473661123,0.7098758125957483,1.150544065740626,0.1421926916264946,0.123734270673626,0.5905387076350709,0.7426307944199279,0.1599790407774307,-0.06178540383708366,0.4453047173669427,820.7692307692308,797.3992673992674,801.8315018315019,815.934065934066,585.0549450549451,0.373535,0.205200,0.852600,16.605988,-5.622559,10.213318,301391.941392,125695750.915751,49755457.875458,102.189049,1,2,1,1,2,85.000000
2025-11-11 15:52:50.365,,,,,,,,,,,,,,,,,,,,,,,,,,,,,,,,,,,,,,,,,,/muse/elements/blink
2025-11-11 15:52:50.791,,,,,,,,,,,,,,,,,,,,,,,,,,,,,,,,,,,,,,,,,,/muse/elements/blink
2025-11-11 15:52:51.043,1.608509564165415,0.5730218186339254,0.9893890304974672,0.8302513290489053,1.519492609439513,0.4094844562859278,0.5683945326998578,0.4536426325707423,1.523608182407548,0.2382290602562505,0.5197533572571068,0.7098758125957483,1.150544065740626,0.03048388927254882,0.03512224215124594,0.5905387076350709,0.7426307944199279,-0.09395402023569299,-0.2471528709897018,0.4453047173669427,837.6923076923077,797.3992673992674,780.0732600732601,842.1245421245421,1338.937728937729,0.296814,0.008423,1.028381,4.231873,-13.891907,-12.471313,299780.219780,125749743.589744,49874725.274725,113.553116,1,2,1,1,2,85.000000
2025-11-11 15:52:51.135,,,,,,,,,,,,,,,,,,,,,,,,,,,,,,,,,,,,,,,,,,/muse/elements/blink
2025-11-11 15:52:51.499,,,,,,,,,,,,,,,,,,,,,,,,,,,,,,,,,,,,,,,,,,/muse/elements/blink
2025-11-11 15:52:52.043,1.608509564165415,0.672112453683398,0.9565795409725304,0.8302513290489053,1.519492609439513,0.3683231811848866,0.6784512191039836,0.4536426325707423,1.523608182407548,0.04709172529411322,0.5566272087909522,0.7098758125957483,1.150544065740626,-0.03721595290577941,0.08642016405500415,0.5905387076350709,0.7426307944199279,0.05532674610637378,-0.08996090448779796,0.4453047173669427,760.3296703296703,796.5934065934066,801.8315018315019,792.1611721611722,1345.384615384615,-0.061035,0.022644,0.940002,-16.770477,-5.203857,-49.832916,303809.523810,125618388.278388,49964175.824176,103.366806,1,2,1,1,2,85.000000
2025-11-11 15:52:53.044,1.608509564165415,0.3925873033646639,0.562889623609429,0.8302513290489053,1.519492609439513,0.4332710777896893,-0.130955127164705,0.4536426325707423,1.523608182407548,0.139354103299431,-0.03723138166519216,0.7098758125957483,1.150544065740626,0.4663169829849721,-0.227927107700215,0.5905387076350709,0.7426307944199279,0.1024195919169077,-0.3328260444199042,0.4453047173669427,794.1758241758242,785.3113553113553,823.1868131868132,826.8131868131868,859.4505494505495,-0.223267,0.013977,0.963745,14.355469,1.181335,-46.468353,305421.245421,125379047.619048,49983516.483516,103.366806,1,2,1,1,2,85.000000
2025-11-11 15:52:54.045,0.9396127997608441,0.05650776371088059,0.5441738884340157,1.177588914251387,0.8690983139042384,0.06705124179426453,-0.03524863294877133,0.8972213331186747,1.223250278820143,0.1491294836280805,0.02730671651758134,1.280108956184236,1.091558214100656,0.3288251754203693,-0.04192150218642494,0.9967246486977784,0.8691828339285468,0.07331928804722897,-0.1481184822767536,0.5799175432023186,749.8534798534798,836.8864468864469,772.014652014652,700.2930402930403,576.1904761904763,-0.306763,-0.087219,0.991455,3.147736,-22.228546,-49.601135,315091.575092,125326666.666667,49969010.989011,101.266678,1,1,1,1,1,85.000000
2025-11-11 15:52:54.247,,,,,,,,,,,,,,,,,,,,,,,,,,,,,,,,,,,,,,,,,,/muse/elements/blink
2025-11-11 15:52:54.969,,,,,,,,,,,,,,,,,,,,,,,,,,,,,,,,,,,,,,,,,,/muse/elements/blink
2025-11-11 15:52:55.043,0.6454266351129418,-0.3260647275869872,0.564304566025265,1.02072841558419,0.4539319461149076,-0.2873454006144597,-0.035367440487843,0.8010515526279639,0.7660593572394996,-0.1848700625505513,-0.2349816789378477,0.6242256015453334,0.97345591046897,0.263330203903019,0.0801613892222459,1.067410322692555,0.8507851704510202,0.06662554787424714,0.02789684839457772,0.5256065628234767,799.4139194139194,792.1611721611722,788.1318681318681,844.9450549450549,1076.227106227106,-0.022034,0.267578,1.072205,9.473114,19.200439,-60.397644,302197.802198,124474871.794872,49830402.930403,88.616135,1,1,1,1,1,85.000000
2025-11-11 15:52:55.758,,,,,,,,,,,,,,,,,,,,,,,,,,,,,,,,,,,,,,,,,,/muse/elements/blink
2025-11-11 15:52:56.047,0.6454266351129418,0.8364206712523822,0.4371470833241751,1.081307567124018,0.4539319461149076,0.87192737791328,-0.04666986297774148,0.8626628653423375,0.7660593572394996,0.6408057922055771,-0.2439281944468375,0.6242256015453334,0.97345591046897,0.5375388160400588,0.1144128190700026,1.078207715467707,0.8507851704510202,0.5389558805752422,0.116108572144158,0.5605271290682085,801.4285714285714,786.1172161172161,828.4249084249085,806.2637362637363,867.9120879120879,-0.047424,0.007263,0.951172,12.523651,9.316101,-47.896423,305421.245421,123971208.791209,49862637.362637,84.206161,1,1,1,1,1,85.000000
2025-11-11 15:52:56.378,,,,,,,,,,,,,,,,,,,,,,,,,,,,,,,,,,,,,,,,,,/muse/elements/blink
2025-11-11 15:52:57.045,0.6454266351129418,0.8783047953521673,0.4371470833241751,1.081307567124018,0.4539319461149076,0.8668657947815877,-0.04666986297774148,0.8626628653423375,0.7660593572394996,0.611415163922076,-0.2439281944468375,0.6242256015453334,0.97345591046897,0.6342844967277272,0.1144128190700026,1.078207715467707,0.8507851704510202,0.6025470077642877,0.116108572144158,0.5605271290682085,471.0256410256411,867.9120879120879,845.7509157509157,470.6227106227107,539.1208791208792,-0.265564,0.248657,0.897888,3.521576,15.865784,-3.013153,313479.853480,124283882.783883,49935164.835165,91.940239,1,2,1,1,2,85.000000
2025-11-11 15:52:57.311,,,,,,,,,,,,,,,,,,,,,,,,,,,,,,,,,,,,,,,,,,/muse/elements/blink
2025-11-11 15:52:57.588,,,,,,,,,,,,,,,,,,,,,,,,,,,,,,,,,,,,,,,,,,/muse/elements/blink
2025-11-11 15:52:58.042,0.6454266351129418,0.9573393516422755,0.4371470833241751,1.081307567124018,0.4539319461149076,0.8674669071105811,-0.04666986297774148,0.8626628653423375,0.7660593572394996,0.5808980908933414,-0.2439281944468375,0.6242256015453334,0.97345591046897,0.6800432503878366,0.1144128190700026,1.078207715467707,0.8507851704510202,0.6287428056331524,0.116108572144158,0.5605271290682085,830.4395604395604,792.5641025641025,796.5934065934066,834.4688644688645,789.7435897435897,-0.147217,0.273682,0.995544,25.548248,12.628326,8.516083,326373.626374,124763369.963370,50077802.197802,93.613388,1,2,1,1,2,85.000000
2025-11-11 15:52:59.045,0.6454266351129418,0.9573393516422755,0.4371470833241751,1.081307567124018,0.4539319461149076,0.8674669071105811,-0.04666986297774148,0.8626628653423375,0.7660593572394996,0.5808980908933414,-0.2439281944468375,0.6242256015453334,0.97345591046897,0.6800432503878366,0.1144128190700026,1.078207715467707,0.8507851704510202,0.6287428056331524,0.116108572144158,0.5605271290682085,738.974358974359,808.6813186813187,792.1611721611722,700.2930402930403,844.9450549450549,0.099426,0.084106,0.950623,-7.932892,-9.936676,58.147125,319926.739927,125465274.725275,50184981.684982,93.044472,1,2,1,1,2,85.000000
2025-11-11 15:52:59.333,,,,,,,,,,,,,,,,,,,,,,,,,,,,,,,,,,,,,,,,,,/muse/elements/blink
2025-11-11 15:53:00.045,0.6454266351129418,1.20238898472842,0.4371470833241751,1.081307567124018,0.4539319461149076,0.3310291872158396,-0.04666986297774148,0.8626628653423375,0.7660593572394996,0.1388809342262814,-0.2439281944468375,0.6242256015453334,0.97345591046897,0.1453063975079889,0.1144128190700026,1.078207715467707,0.8507851704510202,-0.2361184963738397,0.116108572144158,0.5605271290682085,821.978021978022,816.3369963369963,763.956043956044,815.5311355311355,753.4798534798535,-0.015747,0.195923,0.964172,-4.545898,1.831818,61.803284,352967.032967,125412087.912088,50044761.904762,89.642609,1,2,1,1,2,85.000000
2025-11-11 15:53:00.457,,,,,,,,,,,,,,,,,,,,,,,,,,,,,,,,,,,,,,,,,,/muse/elements/blink
2025-11-11 15:53:00.733,,,,,,,,,,,,,,,,,,,,,,,,,,,,,,,,,,,,,,,,,,/muse/elements/blink
2025-11-11 15:53:01.042,0.6454266351129418,0.9069935525879129,0.4371470833241751,1.081307567124018,0.4539319461149076,0.1975108857016589,-0.04666986297774148,0.8626628653423375,0.7660593572394996,0.06499053411480374,-0.2439281944468375,0.6242256015453334,0.97345591046897,0.1810970110446832,0.1144128190700026,1.078207715467707,0.8507851704510202,-0.05930901805347453,0.116108572144158,0.5605271290682085,848.5714285714286,816.3369963369963,753.4798534798535,810.2930402930403,919.8901098901099,-0.303894,0.119446,0.805054,4.919739,64.487457,84.480438,445641.025641,125101831.501832,49945641.025641,89.642609,1,2,1,1,2,85.000000
2025-11-11 15:53:01.565,,,,,,,,,,,,,,,,,,,,,,,,,,,,,,,,,,,,,,,,,,/muse/elements/blink
2025-11-11 15:53:02.042,0.6454266351129418,0.9778147646414722,0.4371470833241751,1.081307567124018,0.4539319461149076,0.2224029195442049,-0.04666986297774148,0.8626628653423375,0.7660593572394996,0.6743399094778418,-0.2439281944468375,0.6242256015453334,0.97345591046897,0.4619808321875724,0.1144128190700026,1.078207715467707,0.8507851704510202,0.1519127810997078,0.116108572144158,0.5605271290682085,816.3369963369963,790.952380952381,785.7142857142858,821.5750915750916,686.5934065934066,-0.307861,0.243164,1.122253,2.138367,7.820740,31.342773,452087.912088,125274285.714286,49997216.117216,89.296501,1,2,1,1,2,85.000000
2025-11-11 15:53:03.045,0.6454266351129418,0.8985886407537091,0.4371470833241751,1.081307567124018,0.4539319461149076,-0.119313865512974,-0.04666986297774148,0.8626628653423375,0.7660593572394996,0.5321069632615225,-0.2439281944468375,0.6242256015453334,0.97345591046897,0.2256448831972332,0.1144128190700026,1.078207715467707,0.8507851704510202,-0.03514863487198509,0.116108572144158,0.5605271290682085,792.967032967033,805.4578754578755,779.2673992673992,789.3406593406594,668.0586080586081,-0.064941,0.135132,1.001709,-6.527252,-33.989563,-23.671570,307838.827839,125653040.293040,50052820.512821,87.304901,1,2,1,1,2,85.000000
2025-11-11 15:53:03.779,,,,,,,,,,,,,,,,,,,,,,,,,,,,,,,,,,,,,,,,,,/muse/elements/blink
2025-11-11 15:53:04.042,0.6454266351129418,0.4309066854375869,0.6662979645617717,1.081307567124018,0.4539319461149076,-0.248789531976202,0.1750580967863471,0.8626628653423375,0.7660593572394996,0.1642119035456707,0.08692282724701278,0.6242256015453334,0.97345591046897,0.1253174211266214,-0.03007538346726242,1.078207715467707,0.8507851704510202,-0.327877976817295,-0.1029289344777186,0.5605271290682085,787.7289377289378,797.8021978021978,780.4761904761905,796.1904761904763,934.3956043956044,-0.046936,0.037476,0.980957,7.544098,-19.200439,30.782013,303809.523810,125624029.304029,50016556.776557,87.304901,1,2,1,1,2,85.000000
2025-11-11 15:53:04.628,,,,,,,,,,,,,,,,,,,,,,,,,,,,,,,,,,,,,,,,,,/muse/elements/blink
2025-11-11 15:53:05.044,0.6454266351129418,0.4669051750918319,0.5449398346795259,1.081307567124018,0.4539319461149076,-0.1907071496642682,-0.04475313733623015,0.8626628653423375,0.7660593572394996,-0.1844124716405177,0.0502745250048789,0.6242256015453334,0.97345591046897,0.2130983277413068,0.006666070793502043,1.078207715467707,0.8507851704510202,-0.1706702452161684,-0.136427421883088,0.5605271290682085,807.8754578754579,793.3699633699634,809.8901098901099,815.1282051282052,807.0695970695971,-0.209106,0.112793,0.952332,-4.919739,9.174042,7.850647,304615.384615,125141318.681319,49906153.846154,85.833847,1,2,1,1,2,85.000000
2025-11-11 15:53:05.141,,,,,,,,,,,,,,,,,,,,,,,,,,,,,,,,,,,,,,,,,,/muse/elements/blink
2025-11-11 15:53:06.047,0.6454266351129418,0.6414318437123587,0.5449398346795259,1.081307567124018,0.4539319461149076,-0.1158274703951214,-0.04475313733623015,0.8626628653423375,0.7660593572394996,-0.0453849413149173,0.0502745250048789,0.6242256015453334,0.97345591046897,-0.258618245488852,0.006666070793502043,1.078207715467707,0.8507851704510202,-0.2597550391926658,-0.136427421883088,0.5605271290682085,657.5824175824176,823.992673992674,829.6336996336996,677.3260073260074,678.1318681318681,-0.216675,0.043335,0.991638,11.940460,-6.886139,2.332764,300586.080586,125022051.282051,49890036.630037,82.067078,1,2,1,1,2,85.000000
2025-11-11 15:53:06.207,,,,,,,,,,,,,,,,,,,,,,,,,,,,,,,,,,,,,,,,,,/muse/elements/blink
2025-11-11 15:53:06.547,,,,,,,,,,,,,,,,,,,,,,,,,,,,,,,,,,,,,,,,,,/muse/elements/blink
2025-11-11 15:53:06.973,,,,,,,,,,,,,,,,,,,,,,,,,,,,,,,,,,,,,,,,,,/muse/elements/blink
2025-11-11 15:53:07.048,0.6454266351129418,0.9078514009713408,1.148571720633521,1.081307567124018,0.4539319461149076,0.3798133491994712,0.8261207657822103,0.8626628653423375,0.7660593572394996,0.427472658651561,0.4797953463047018,0.6242256015453334,0.97345591046897,-0.004043270257532011,0.1323251916678284,1.078207715467707,0.8507851704510202,-0.1273631214478341,-0.1628595955832212,0.5605271290682085,604.3956043956044,839.7069597069598,774.8351648351648,598.7545787545788,1048.827838827839,0.203003,0.055420,0.919617,20.127563,44.868317,-136.085358,299780.219780,123689963.369963,49772380.952381,82.067078,1,2,1,1,2,85.000000
2025-11-11 15:53:07.253,,,,,,,,,,,,,,,,,,,,,,,,,,,,,,,,,,,,,,,,,,/muse/elements/blink
2025-11-11 15:53:08.051,0.6454266351129418,1.035100138512236,1.212719803572923,1.081307567124018,0.4539319461149076,0.5282627571862243,0.9566300589744934,0.8626628653423375,0.7660593572394996,0.438268029722593,0.4227233431878556,0.6242256015453334,0.97345591046897,0.622792365284648,0.09903108972493339,1.078207715467707,0.8507851704510202,0.2681958528730131,-0.1332952672416506,0.5605271290682085,736.5567765567765,801.8315018315019,780.4761904761905,776.4468864468864,705.5311355311355,0.416199,0.045166,0.805847,-41.810303,-10.863800,-60.606995,303003.663004,123712527.472527,49732893.772894,78.302841,1,2,1,1,2,85.000000
2025-11-11 15:53:08.549,,,,,,,,,,,,,,,,,,,,,,,,,,,,,,,,,,,,,,,,,,/muse/elements/blink
2025-11-11 15:53:09.047,0.6454266351129418,0.6657467231536121,1.490442663507839,1.081307567124018,0.4539319461149076,-0.08286985420213897,0.7237374771132855,0.8626628653423375,0.7660593572394996,-0.002478137141932338,0.6878039402936705,0.6242256015453334,0.97345591046897,0.2579301569979023,0.161415093630244,1.078207715467707,0.8507851704510202,-0.02130070879210225,-0.1493143866921804,0.5605271290682085,774.4322344322345,803.4432234432235,799.8168498168499,834.0659340659341,657.5824175824176,0.101013,0.004639,1.052551,-19.529419,18.781738,-50.348816,303003.663004,123523956.043956,49843296.703297,77.481865,1,2,1,1,2,85.000000
2025-11-11 15:53:09.080,,,,,,,,,,,,,,,,,,,,,,,,,,,,,,,,,,,,,,,,,,/muse/elements/blink
2025-11-11 15:53:10.042,0.6454266351129418,0.7982982461627817,1.511013520094267,1.081307567124018,0.4539319461149076,0.3312457750040349,0.6388245701932272,0.8626628653423375,0.7660593572394996,0.3080506688629563,0.5526285042736112,0.6242256015453334,0.97345591046897,0.1392331113929355,0.04573346459409864,1.078207715467707,0.8507851704510202,-0.06806510370739981,-0.2345796104480779,0.5605271290682085,855.0183150183151,790.5494505494506,795.7875457875458,809.8901098901099,1021.428571428571,0.214722,0.028259,0.952148,12.134857,-6.392670,-1.173859,311062.271062,124249230.769231,49951282.051282,77.175705,1,2,1,1,2,85.000000
2025-11-11 15:53:10.107,,,,,,,,,,,,,,,,,,,,,,,,,,,,,,,,,,,,,,,,,,/muse/elements/blink
2025-11-11 15:53:10.700,,,,,,,,,,,,,,,,,,,,,,,,,,,,,,,,,,,,,,,,,,/muse/elements/blink
2025-11-11 15:53:11.050,0.6454266351129418,0.5993742667770051,1.511013520094267,1.081307567124018,0.4539319461149076,0.03884915720658082,0.6388245701932272,0.8626628653423375,0.7660593572394996,0.1681349024633346,0.5526285042736112,0.6242256015453334,0.97345591046897,-0.1515116570022648,0.04573346459409864,1.078207715467707,0.8507851704510202,-0.2570986135750868,-0.2345796104480779,0.5605271290682085,842.5274725274726,794.1758241758242,773.6263736263736,835.6776556776557,838.4981684981685,0.165527,0.063232,0.908264,-19.477081,5.562744,8.590851,315091.575092,124760952.380952,49965787.545788,76.823013,1,2,1,1,2,85.000000
2025-11-11 15:53:11.508,,,,,,,,,,,,,,,,,,,,,,,,,,,,,,,,,,,,,,,,,,/muse/elements/blink
2025-11-11 15:53:12.050,0.6454266351129418,0.8648488542560666,1.511013520094267,1.081307567124018,0.4539319461149076,0.6559602541529638,0.6388245701932272,0.8626628653423375,0.7660593572394996,0.6634164829662906,0.5526285042736112,0.6242256015453334,0.97345591046897,0.003400965386905443,0.04573346459409864,1.078207715467707,0.8507851704510202,-0.2493019947978782,-0.2345796104480779,0.5605271290682085,811.9047619047619,791.3553113553114,800.6227106227107,803.4432234432235,692.2344322344322,0.274414,0.150635,0.868469,12.374115,10.101166,23.649139,314285.714286,125096996.336996,49982710.622711,76.956573,1,2,1,1,2,85.000000
2025-11-11 15:53:12.316,,,,,,,,,,,,,,,,,,,,,,,,,,,,,,,,,,,,,,,,,,/muse/elements/blink
2025-11-11 15:53:13.050,0.6454266351129418,1.193390464288828,1.511013520094267,1.081307567124018,0.4539319461149076,0.762413138739684,0.6388245701932272,0.8626628653423375,0.7660593572394996,0.6634164829662906,0.5526285042736112,0.6242256015453334,0.97345591046897,0.2267104721676238,0.04573346459409864,1.078207715467707,0.8507851704510202,-0.1248190944239067,-0.2345796104480779,0.5605271290682085,757.9120879120879,788.1318681318681,840.1098901098901,770.8058608058608,1190.25641025641,-0.283020,0.115479,0.983704,-27.432404,-0.171967,79.762573,366666.666667,124273406.593407,49962564.102564,76.956573,1,2,1,1,2,85.000000
2025-11-11 15:53:13.336,,,,,,,,,,,,,,,,,,,,,,,,,,,,,,,,,,,,,,,,,,/muse/elements/blink
2025-11-11 15:53:13.657,,,,,,,,,,,,,,,,,,,,,,,,,,,,,,,,,,,,,,,,,,/muse/elements/blink
2025-11-11 15:53:14.042,0.6454266351129418,1.495594831070634,1.511013520094267,1.081307567124018,0.4539319461149076,0.5824785347814955,0.6388245701932272,0.8626628653423375,0.7660593572394996,0.006312824324677208,0.5526285042736112,0.6242256015453334,0.97345591046897,0.2401852909153622,0.04573346459409864,1.078207715467707,0.8507851704510202,0.006336545849157176,-0.2345796104480779,0.5605271290682085,779.6703296703297,785.3113553113553,784.5054945054945,759.5238095238095,690.2197802197802,-0.283142,0.180298,0.888000,-11.289978,12.949829,50.057220,572161.172161,124301611.721612,49947252.747253,78.837357,1,2,1,1,2,85.000000
2025-11-11 15:53:14.359,,,,,,,,,,,,,,,,,,,,,,,,,,,,,,,,,,,,,,,,,,/muse/elements/blink
2025-11-11 15:53:15.051,0.6454266351129418,1.187913830106449,1.511013520094267,1.081307567124018,0.4539319461149076,0.4581543539099081,0.6388245701932272,0.8626628653423375,0.7660593572394996,0.5709449387272424,0.5526285042736112,0.6242256015453334,0.97345591046897,0.34253251073716,0.04573346459409864,1.078207715467707,0.8507851704510202,-0.05539753587321555,-0.2345796104480779,0.5605271290682085,819.5604395604396,792.5641025641025,781.2820512820513,816.7399267399268,828.8278388278388,-0.263550,0.237305,1.140930,19.080811,25.211792,18.392944,307838.827839,124944688.644689,50044761.904762,79.114731,1,2,1,1,2,85.000000
2025-11-11 15:53:16.042,0.6454266351129418,0.8944764906814918,1.116783666630461,1.081307567124018,0.4539319461149076,0.2012285816194741,0.0614088959414049,0.8626628653423375,0.7660593572394996,0.5878091006193357,-0.09822650112356192,0.6242256015453334,0.97345591046897,0.1900857391628724,-0.249870099512966,1.078207715467707,0.8507851704510202,-0.2779045764751941,-0.5515923987728465,0.5605271290682085,803.8461538461539,801.4285714285714,787.7289377289378,840.1098901098901,847.7655677655678,-0.151611,0.042969,0.829468,-21.136932,-1.502838,65.930481,303809.523810,124933406.593407,50074578.754579,79.705963,1,2,1,1,2,85.000000
2025-11-11 15:53:16.102,,,,,,,,,,,,,,,,,,,,,,,,,,,,,,,,,,,,,,,,,,/muse/elements/blink
2025-11-11 15:53:16.721,,,,,,,,,,,,,,,,,,,,,,,,,,,,,,,,,,,,,,,,,,/muse/elements/blink
2025-11-11 15:53:17.049,0.6454266351129418,0.8146607243685703,1.116783666630461,1.081307567124018,0.4539319461149076,0.03041125853482227,0.0614088959414049,0.8626628653423375,0.7660593572394996,0.2580258672651083,-0.09822650112356192,0.6242256015453334,0.97345591046897,0.1400878119678101,-0.249870099512966,1.078207715467707,0.8507851704510202,-0.2670679268081342,-0.5515923987728465,0.5605271290682085,799.0109890109891,782.893772893773,836.8864468864469,783.2967032967033,848.5714285714286,-0.200378,0.089661,1.031006,10.317993,-3.087921,-25.854797,302197.802198,125146153.846154,50122930.402930,81.491531,1,2,1,1,2,85.000000
2025-11-11 15:53:17.168,,,,,,,,,,,,,,,,,,,,,,,,,,,,,,,,,,,,,,,,,,/muse/elements/blink
2025-11-11 15:53:18.048,0.6454266351129418,0.9577127384089154,1.116783666630461,1.081307567124018,0.4539319461149076,0.08074192116732394,0.0614088959414049,0.8626628653423375,0.7660593572394996,0.2133845194726513,-0.09822650112356192,0.6242256015453334,0.97345591046897,0.1296873964060906,-0.249870099512966,1.078207715467707,0.8507851704510202,-0.1837119640791425,-0.5515923987728465,0.5605271290682085,782.893772893773,799.0109890109891,807.4725274725275,764.3589743589744,672.0879120879121,-0.193909,-0.065735,0.837891,5.562744,-5.816956,-21.450958,305421.245421,125009963.369963,50144688.644689,86.019714,1,2,1,1,2,85.000000
2025-11-11 15:53:19.047,0.6454266351129418,0.703186168276138,0.8186316980722707,1.081307567124018,0.4539319461149076,0.1201004001147376,0.3449136324307516,0.8626628653423375,0.7660593572394996,0.5959985226224351,0.3677497358632963,0.6242256015453334,0.97345591046897,0.1019259820894918,0.6203249320024782,1.078207715467707,0.8507851704510202,-0.1335657099884541,0.4288522857415604,0.5605271290682085,805.0549450549451,792.967032967033,830.0366300366301,823.5897435897436,1031.501831501831,-0.162659,0.012634,0.920227,1.988831,2.347717,-17.353668,306227.106227,125096996.336996,50088278.388278,83.802345,1,2,1,1,2,85.000000
2025-11-11 15:53:19.422,,,,,,,,,,,,,,,,,,,,,,,,,,,,,,,,,,,,,,,,,,/muse/elements/blink
2025-11-11 15:53:20.055,0.6454266351129418,0.3963085684676558,0.8445342258021109,1.081307567124018,0.4539319461149076,0.04902386444774324,0.3140203341549468,0.8626628653423375,0.7660593572394996,0.4114711615526686,0.3677497358632963,0.6242256015453334,0.97345591046897,-0.01921910953750287,0.5859304564327102,1.078207715467707,0.8507851704510202,-0.1371190249916201,0.4391234864423257,0.5605271290682085,649.1208791208792,826.8131868131868,754.2857142857143,657.985347985348,691.4285714285714,-0.033020,0.188660,1.047791,-18.019104,19.454651,-38.632660,366666.666667,125066373.626374,49919853.479853,80.279861,1,2,1,1,2,85.000000
2025-11-11 15:53:20.125,,,,,,,,,,,,,,,,,,,,,,,,,,,,,,,,,,,,,,,,,,/muse/elements/blink
2025-11-11 15:53:20.465,,,,,,,,,,,,,,,,,,,,,,,,,,,,,,,,,,,,,,,,,,/muse/elements/blink
2025-11-11 15:53:20.828,,,,,,,,,,,,,,,,,,,,,,,,,,,,,,,,,,,,,,,,,,/muse/elements/blink
2025-11-11 15:53:21.052,0.6454266351129418,0.2929484572501301,0.7768713566625026,1.081307567124018,0.4539319461149076,-0.07381281551501762,0.1688364814636152,0.8626628653423375,0.7660593572394996,0.03371311397968248,0.162637865851474,0.6242256015453334,0.97345591046897,-0.1020034694153532,0.5434142756962289,1.078207715467707,0.8507851704510202,-0.1776799609082956,0.4685821379187236,0.5605271290682085,840.1098901098901,799.0109890109891,777.6556776556777,818.3516483516484,922.7106227106227,0.116638,0.039185,1.072205,-4.972076,-1.988831,-56.218109,303003.663004,125198534.798535,49962564.102564,78.701141,1,2,1,1,2,85.000000
2025-11-11 15:53:21.594,,,,,,,,,,,,,,,,,,,,,,,,,,,,,,,,,,,,,,,,,,/muse/elements/blink
2025-11-11 15:53:21.786,,,,,,,,,,,,,,,,,,,,,,,,,,,,,,,,,,,,,,,,,,/muse/elements/blink
2025-11-11 15:53:22.042,0.6454266351129418,0.2929484572501301,0.7768713566625026,1.081307567124018,0.4539319461149076,-0.07381281551501762,0.1688364814636152,0.8626628653423375,0.7660593572394996,0.03371311397968248,0.162637865851474,0.6242256015453334,0.97345591046897,-0.1020034694153532,0.5434142756962289,1.078207715467707,0.8507851704510202,-0.1776799609082956,0.4685821379187236,0.5605271290682085,796.5934065934066,788.9377289377289,825.2014652014652,793.3699633699634,589.0842490842491,-0.402527,-0.016602,0.920105,40.015869,7.940369,-71.538086,307032.967033,124487765.567766,49943223.443223,78.315849,1,2,1,1,2,85.000000
2025-11-11 15:53:22.574,,,,,,,,,,,,,,,,,,,,,,,,,,,,,,,,,,,,,,,,,,/muse/elements/blink
2025-11-11 15:53:23.042,0.6454266351129418,0.2929484572501301,0.7768713566625026,1.081307567124018,0.4539319461149076,-0.07381281551501762,0.1688364814636152,0.8626628653423375,0.7660593572394996,0.03371311397968248,0.162637865851474,0.6242256015453334,0.97345591046897,-0.1020034694153532,0.5434142756962289,1.078207715467707,0.8507851704510202,-0.1776799609082956,0.4685821379187236,0.5605271290682085,786.5201465201466,788.9377289377289,797.8021978021978,784.1025641025641,602.7838827838827,-0.229065,0.048218,0.946167,14.662018,-8.501129,-6.422577,318315.018315,125665934.065934,50186593.406593,79.039368,1,2,1,1,2,85.000000
2025-11-11 15:53:24.042,0.6454266351129418,0.6013945202032617,0.5712392293968938,1.081307567124018,0.4539319461149076,0.4031279241039298,0.152509590347844,0.8626628653423375,0.7660593572394996,0.286979952665937,0.5436949406900872,0.6242256015453334,0.97345591046897,-0.07172695192546426,0.2205721564443522,1.078207715467707,0.8507851704510202,-0.3429579670395192,-0.2459446109054657,0.5605271290682085,772.8205128205128,796.5934065934066,790.1465201465202,783.2967032967033,695.8608058608058,-0.487732,0.448059,1.266724,-18.049011,18.916321,52.973175,316703.296703,125806153.846154,50183369.963370,79.275986,1,2,1,1,2,85.000000
2025-11-11 15:53:24.129,,,,,,,,,,,,,,,,,,,,,,,,,,,,,,,,,,,,,,,,,,/muse/elements/blink
2025-11-11 15:53:24.511,,,,,,,,,,,,,,,,,,,,,,,,,,,,,,,,,,,,,,,,,,/muse/elements/blink
2025-11-11 15:53:25.042,0.6454266351129418,0.7425796876254686,0.3045466456189758,1.081307567124018,0.4539319461149076,0.3655981682606166,-0.2505751415195369,0.8626628653423375,0.7660593572394996,0.08910879401217681,0.2762062166613866,0.6242256015453334,0.97345591046897,-0.09226619410601769,0.1602368052974399,1.078207715467707,0.8507851704510202,-0.3585059850336822,-0.3571391189954287,0.5605271290682085,761.5384615384615,783.6996336996338,852.6007326007326,771.6117216117216,954.5421245421246,-0.199768,0.243835,0.793945,4.717865,-1.786957,15.387268,319120.879121,125444322.344322,50081831.501832,79.275986,1,2,1,1,2,85.000000
2025-11-11 15:53:25.428,,,,,,,,,,,,,,,,,,,,,,,,,,,,,,,,,,,,,,,,,,/muse/elements/blink
2025-11-11 15:53:25.855,,,,,,,,,,,,,,,,,,,,,,,,,,,,,,,,,,,,,,,,,,/muse/elements/blink
2025-11-11 15:53:26.042,0.6454266351129418,0.8996072833603702,0.3045466456189758,1.081307567124018,0.4539319461149076,0.442305058394057,-0.2505751415195369,0.8626628653423375,0.7660593572394996,-0.1687164341464086,0.2762062166613866,0.6242256015453334,0.97345591046897,-0.2060405587701637,0.1602368052974399,1.078207715467707,0.8507851704510202,-0.4195568149403448,-0.3571391189954287,0.5605271290682085,803.8461538461539,808.6813186813187,760.3296703296703,799.0109890109891,618.901098901099,-0.029846,0.144897,0.964539,-15.319977,1.450500,82.117767,387619.047619,125470109.890110,49947252.747253,81.618652,1,2,1,1,2,85.000000
2025-11-11 15:53:26.450,,,,,,,,,,,,,,,,,,,,,,,,,,,,,,,,,,,,,,,,,,/muse/elements/blink
2025-11-11 15:53:27.042,0.6454266351129418,0.8996072833603702,0.3045466456189758,1.081307567124018,0.4539319461149076,0.442305058394057,-0.2505751415195369,0.8626628653423375,0.7660593572394996,-0.1687164341464086,0.2762062166613866,0.6242256015453334,0.97345591046897,-0.2060405587701637,0.1602368052974399,1.078207715467707,0.8507851704510202,-0.4195568149403448,-0.3571391189954287,0.5605271290682085,816.3369963369963,799.4139194139194,786.5201465201466,776.0439560439561,793.3699633699634,0.160278,0.146851,0.972961,-2.654266,-17.824707,28.942719,395677.655678,125034945.054945,49863443.223443,81.618652,1,2,1,1,2,85.000000
2025-11-11 15:53:27.537,,,,,,,,,,,,,,,,,,,,,,,,,,,,,,,,,,,,,,,,,,/muse/elements/blink
2025-11-11 15:53:27.771,,,,,,,,,,,,,,,,,,,,,,,,,,,,,,,,,,,,,,,,,,/muse/elements/blink
2025-11-11 15:53:28.042,0.6454266351129418,0.4810325191847913,0.1776181951508668,1.081307567124018,0.4539319461149076,0.1375975810766595,-0.2931585081715823,0.8626628653423375,0.7660593572394996,0.3465199113066738,0.144931607412217,0.6242256015453334,0.97345591046897,0.1751790992043541,0.07819488876532478,1.078207715467707,0.8507851704510202,0.03706179161600033,-0.3349513582201881,0.5605271290682085,665.6410256410256,791.3553113553114,844.9450549450549,695.0549450549451,884.4322344322345,0.267944,0.087830,1.076782,11.237640,12.486267,24.008026,304615.384615,124377362.637363,49864249.084249,81.618652,1,2,1,1,2,85.000000
2025-11-11 15:53:28.156,,,,,,,,,,,,,,,,,,,,,,,,,,,,,,,,,,,,,,,,,,/muse/elements/blink
2025-11-11 15:53:29.010,,,,,,,,,,,,,,,,,,,,,,,,,,,,,,,,,,,,,,,,,,/muse/elements/blink
2025-11-11 15:53:29.041,0.6454266351129418,0.4415081885477949,0.1798459989974301,1.081307567124018,0.4539319461149076,0.2332228751844548,-0.3780797677452714,0.8626628653423375,0.7660593572394996,0.3444454256056144,0.01439556870585125,0.6242256015453334,0.97345591046897,-0.1457011535484831,0.08563240366076648,1.078207715467707,0.8507851704510202,-0.09509981150442724,-0.3385107058050111,0.5605271290682085,810.2930402930403,802.2344322344322,779.6703296703297,789.3406593406594,676.1172161172161,0.218201,-0.021729,0.911011,-3.170166,-21.585541,19.364929,303809.523810,125071208.791209,50042344.322344,81.618652,1,2,1,1,2,85.000000
2025-11-11 15:53:29.372,,,,,,,,,,,,,,,,,,,,,,,,,,,,,,,,,,,,,,,,,,/muse/elements/blink
2025-11-11 15:53:29.778,,,,,,,,,,,,,,,,,,,,,,,,,,,,,,,,,,,,,,,,,,/muse/elements/blink
2025-11-11 15:53:30.042,0.6454266351129418,0.6389820261292104,1.17001547436909,1.081307567124018,0.4539319461149076,0.4223636234416101,0.9309586213741237,0.8626628653423375,0.7660593572394996,0.3385630133833976,0.5230484588176791,0.6242256015453334,0.97345591046897,-0.1859052703393373,-0.002381227832705154,1.078207715467707,0.8507851704510202,-0.198712753053989,-0.2482387011005492,0.5605271290682085,570.952380952381,848.974358974359,742.6007326007326,536.3003663003664,798.2051282051282,0.104004,0.104126,0.989075,-7.850647,39.380341,-14.153595,303809.523810,125570842.490842,50100366.300366,81.618652,1,2,1,1,2,85.000000
2025-11-11 15:53:30.245,,,,,,,,,,,,,,,,,,,,,,,,,,,,,,,,,,,,,,,,,,/muse/elements/blink
2025-11-11 15:53:31.042,0.6454266351129418,0.9288071716948442,1.455534040817264,1.081307567124018,0.4539319461149076,0.7831715634073053,1.338556062614831,0.8626628653423375,0.7660593572394996,0.5591488542702493,0.9559144446804627,0.6242256015453334,0.97345591046897,-0.01258606813877293,0.2906450617026334,1.078207715467707,0.8507851704510202,-0.2263826948018771,-0.2063661398052816,0.5605271290682085,665.6410256410256,763.956043956044,919.0842490842491,762.7472527472528,790.1465201465202,-0.258301,0.092590,1.134216,0.545807,-12.172241,-35.769043,304615.384615,125804542.124542,50243003.663004,81.618652,1,2,1,1,2,85.000000
2025-11-11 15:53:31.202,,,,,,,,,,,,,,,,,,,,,,,,,,,,,,,,,,,,,,,,,,/muse/elements/blink
2025-11-11 15:53:31.521,,,,,,,,,,,,,,,,,,,,,,,,,,,,,,,,,,,,,,,,,,/muse/elements/blink
2025-11-11 15:53:32.034,,,,,,,,,,,,,,,,,,,,,,,,,,,,,,,,,,,,,,,,,,/muse/elements/blink
2025-11-11 15:53:32.045,0.6454266351129418,1.298869444879996,1.603872112595159,1.081307567124018,0.4539319461149076,1.00413138708743,1.523491793001487,0.8626628653423375,0.7660593572394996,0.7823312373067327,0.9460854452205137,0.6242256015453334,0.97345591046897,0.1490243115135632,0.3996329825965337,1.078207715467707,0.8507851704510202,-0.1830837977360607,-0.2165620004266271,0.5605271290682085,778.0586080586081,792.967032967033,805.4578754578755,786.9230769230769,725.2747252747253,-0.179749,-0.015686,0.965149,16.583557,-5.450592,-30.505371,311062.271062,126113186.813187,50232527.472527,83.822372,1,2,1,1,2,85.000000
2025-11-11 15:53:32.842,,,,,,,,,,,,,,,,,,,,,,,,,,,,,,,,,,,,,,,,,,/muse/elements/blink
2025-11-11 15:53:33.048,0.6454266351129418,1.21094469500578,1.603872112595159,1.081307567124018,0.4539319461149076,1.166422714178355,1.523491793001487,0.8626628653423375,0.7660593572394996,1.092264991229209,0.9460854452205137,0.6242256015453334,0.97345591046897,0.244142751101857,0.3996329825965337,1.078207715467707,0.8507851704510202,-0.02923339307664536,-0.2165620004266271,0.5605271290682085,796.1904761904763,804.2490842490843,801.8315018315019,838.901098901099,873.956043956044,-0.033813,0.077881,0.969177,4.112244,-5.211334,-63.463135,382783.882784,124969670.329670,49903736.263736,83.822372,1,2,1,1,2,85.000000
2025-11-11 15:53:33.335,,,,,,,,,,,,,,,,,,,,,,,,,,,,,,,,,,,,,,,,,,/muse/elements/blink
2025-11-11 15:53:33.782,,,,,,,,,,,,,,,,,,,,,,,,,,,,,,,,,,,,,,,,,,/muse/elements/blink
2025-11-11 15:53:34.042,0.6454266351129418,1.192987892790759,1.603872112595159,1.081307567124018,0.4539319461149076,1.195974511469774,1.523491793001487,0.8626628653423375,0.7660593572394996,1.086942394628642,0.9460854452205137,0.6242256015453334,0.97345591046897,0.2491341373395319,0.3996329825965337,1.078207715467707,0.8507851704510202,-0.002351369455240802,-0.2165620004266271,0.5605271290682085,1062.930402930403,782.4908424908425,769.1941391941392,1027.875457875458,884.0293040293041,-0.190613,-0.090942,1.407837,3.028107,3.207550,-60.816345,303809.523810,124827032.967033,49856190.476190,83.822372,1,2,1,1,2,85.000000
2025-11-11 15:53:34.060,,,,,,,,,,,,,,,,,,,,,,,,,,,,,,,,,,,,,,,,,,/muse/elements/blink
2025-11-11 15:53:34.659,,,,,,,,,,,,,,,,,,,,,,,,,,,,,,,,,,,,,,,,,,/muse/elements/blink
2025-11-11 15:53:35.042,0.6454266351129418,1.192987892790759,1.603872112595159,1.081307567124018,0.4539319461149076,1.195974511469774,1.523491793001487,0.8626628653423375,0.7660593572394996,1.086942394628642,0.9460854452205137,0.6242256015453334,0.97345591046897,0.2491341373395319,0.3996329825965337,1.078207715467707,0.8507851704510202,-0.002351369455240802,-0.2165620004266271,0.5605271290682085,810.6959706959707,801.8315018315019,784.5054945054945,840.1098901098901,602.7838827838827,-0.270264,0.123718,0.983948,26.572571,2.699127,-62.962189,336043.956044,123841465.201465,49809450.549451,83.822372,1,2,1,1,2,85.000000
2025-11-11 15:53:36.042,0.6454266351129418,1.192987892790759,1.603872112595159,1.081307567124018,0.4539319461149076,1.195974511469774,1.523491793001487,0.8626628653423375,0.7660593572394996,1.086942394628642,0.9460854452205137,0.6242256015453334,0.97345591046897,0.2491341373395319,0.3996329825965337,1.078207715467707,0.8507851704510202,-0.002351369455240802,-0.2165620004266271,0.5605271290682085,1009.340659340659,704.7252747252747,866.3003663003664,995.2380952380953,767.5824175824176,-0.300598,0.299561,0.853333,-61.115417,7.409515,244.970093,305421.245421,124735164.835165,49987545.787546,83.822372,1,2,1,1,2,85.000000
2025-11-11 15:53:36.069,,,,,,,,,,,,,,,,,,,,,,,,,,,,,,,,,,,,,,,,,,/muse/elements/blink
2025-11-11 15:53:36.408,,,,,,,,,,,,,,,,,,,,,,,,,,,,,,,,,,,,,,,,,,/muse/elements/blink
2025-11-11 15:53:37.042,0.6454266351129418,1.192987892790759,1.603872112595159,1.081307567124018,0.4539319461149076,1.195974511469774,1.523491793001487,0.8626628653423375,0.7660593572394996,1.086942394628642,0.9460854452205137,0.6242256015453334,0.97345591046897,0.2491341373395319,0.3996329825965337,1.078207715467707,0.8507851704510202,-0.002351369455240802,-0.2165620004266271,0.5605271290682085,789.7435897435897,790.5494505494506,795.7875457875458,772.014652014652,667.2527472527473,-0.138916,0.101135,1.142761,1.091614,-6.519775,6.564636,338461.538462,125836776.556777,50176117.216117,83.822372,1,2,1,1,2,85.000000
2025-11-11 15:53:38.042,1.269006937402641,0.3413988775710732,1.603872112595159,1.081307567124018,0.7685210147136357,-0.5199714605935238,1.523491793001487,0.8626628653423375,1.026847681086068,0.002305329114720821,0.9460854452205137,0.6242256015453334,1.020626820742278,-0.05660665404562904,0.3996329825965337,1.078207715467707,0.6620082952389547,-0.0868946196447897,-0.2165620004266271,0.5605271290682085,800.6227106227107,811.5018315018315,777.2527472527473,767.985347985348,713.992673992674,-0.113159,0.109741,0.911743,-12.075043,-11.304932,62.498627,355384.615385,126204249.084249,50193846.153846,83.822372,1,2,1,1,2,85.000000
2025-11-11 15:53:39.042,1.408703031467885,0.7340021497235784,0.9597196763196173,1.081307567124018,0.9452862830175792,0.2532076401054308,0.1054349654563751,0.8626628653423375,1.11235767664504,0.3179395552053181,0.05026867544205954,0.6242256015453334,0.8859240305068199,0.08785623216161202,0.07446917372750406,1.078207715467707,0.6335034067069049,0.09982738503512455,-0.2148862676840612,0.5605271290682085,524.2124542124542,819.5604395604396,943.6630036630037,589.4871794871796,907.3992673992674,0.031372,0.206360,0.982056,-10.744171,10.938568,117.640076,417435.897436,126049523.809524,50116483.516484,82.018478,1,1,1,1,1,85.000000
2025-11-11 15:53:39.262,,,,,,,,,,,,,,,,,,,,,,,,,,,,,,,,,,,,,,,,,,/muse/elements/blink
2025-11-11 15:53:40.047,1.464270578411375,0.9303785255989708,1.101214093471221,1.081307567124018,1.069122645748277,0.5391855717648542,0.1152914271395102,0.8626628653423375,1.070366135983857,0.3858144642094582,0.02176200056961072,0.6242256015453334,0.7491208031032108,0.2055297400421209,0.1189993384725516,1.078207715467707,0.6116747557541969,0.2727508267666473,-0.2207936798836801,0.5605271290682085,788.9377289377289,803.4432234432235,792.1611721611722,785.3113553113553,786.5201465201466,-0.140076,0.125549,1.053223,-6.482391,-7.768402,25.376282,460146.520147,125683663.003663,49981098.901099,72.380592,1,1,1,1,1,85.000000
2025-11-11 15:53:40.483,,,,,,,,,,,,,,,,,,,,,,,,,,,,,,,,,,,,,,,,,,/muse/elements/blink
2025-11-11 15:53:40.845,,,,,,,,,,,,,,,,,,,,,,,,,,,,,,,,,,,,,,,,,,/muse/elements/blink
2025-11-11 15:53:41.048,1.464270578411375,0.7922497343041968,1.173774984524631,1.081307567124018,1.069122645748277,0.6051925164320622,0.1067780201333857,0.8626628653423375,1.070366135983857,0.1290768974786339,0.005567741094221521,0.6242256015453334,0.7491208031032108,0.3334701930857934,0.1313597791468776,1.078207715467707,0.6116747557541969,-0.08458897802175736,-0.2502351504238401,0.5605271290682085,859.047619047619,811.0989010989011,787.3260073260074,824.3956043956044,757.5091575091575,-0.207458,0.101746,1.026733,-0.471039,13.974152,6.699219,305421.245421,125213040.293040,49849743.589744,72.380592,1,1,1,1,1,85.000000
2025-11-11 15:53:42.041,1.464270578411375,0.8810872951898633,1.173774984524631,1.081307567124018,1.069122645748277,0.6864832904250324,0.1067780201333857,0.8626628653423375,1.070366135983857,0.1013729983851208,0.005567741094221521,0.6242256015453334,0.7491208031032108,0.380064558572194,0.1313597791468776,1.078207715467707,0.6116747557541969,-0.08808689765613137,-0.2502351504238401,0.5605271290682085,754.2857142857143,795.7875457875458,806.2637362637363,784.5054945054945,939.6336996336996,-0.145081,0.123108,0.879028,-13.166656,-5.510406,6.661835,303809.523810,125384688.644689,49894065.934066,72.380592,1,2,1,1,2,85.000000
2025-11-11 15:53:42.190,,,,,,,,,,,,,,,,,,,,,,,,,,,,,,,,,,,,,,,,,,/muse/elements/blink
2025-11-11 15:53:42.786,,,,,,,,,,,,,,,,,,,,,,,,,,,,,,,,,,,,,,,,,,/muse/elements/blink
2025-11-11 15:53:43.042,1.464270578411375,0.6767105060005023,0.925327562571341,1.081307567124018,1.069122645748277,0.4444843932799042,0.669612681044959,0.8626628653423375,1.070366135983857,0.3783645760839884,0.5068419310450513,0.6242256015453334,0.7491208031032108,0.251276666535398,0.1318700114086396,1.078207715467707,0.6116747557541969,0.04971399913047318,-0.1268027896349089,0.5605271290682085,813.5164835164835,777.2527472527473,802.6373626373627,841.3186813186813,813.1135531135532,-0.237915,-0.044373,1.039856,12.254486,12.329254,-22.722015,307032.967033,125283956.043956,49888424.908425,72.380592,1,2,1,1,2,85.000000
2025-11-11 15:53:43.085,,,,,,,,,,,,,,,,,,,,,,,,,,,,,,,,,,,,,,,,,,/muse/elements/blink
2025-11-11 15:53:44.000,,,,,,,,,,,,,,,,,,,,,,,,,,,,,,,,,,,,,,,,,,/muse/elements/blink
2025-11-11 15:53:44.042,1.464270578411375,0.8006930815608648,1.104041713008027,1.081307567124018,1.069122645748277,0.5387567632264864,0.7655874650970739,0.8626628653423375,1.070366135983857,0.1701616686191137,0.5024606489473775,0.6242256015453334,0.7491208031032108,0.2715853979667224,0.1982487887900506,1.078207715467707,0.6116747557541969,-0.01507650386888107,-0.1532388676045221,0.5605271290682085,866.7032967032967,818.7545787545788,757.1062271062272,844.1391941391942,679.7435897435897,-0.325928,0.088318,0.932373,2.145844,8.964691,-64.539795,307032.967033,125473333.333333,49953699.633700,75.164360,1,2,1,1,2,85.000000
2025-11-11 15:53:44.598,,,,,,,,,,,,,,,,,,,,,,,,,,,,,,,,,,,,,,,,,,/muse/elements/blink
2025-11-11 15:53:45.042,1.464270578411375,0.8006930815608648,1.216087221376901,1.081307567124018,1.069122645748277,0.5387567632264864,1.008029482490522,0.8626628653423375,1.070366135983857,0.1701616686191137,0.3574057857928227,0.6242256015453334,0.7491208031032108,0.2715853979667224,-0.005822059903503986,1.078207715467707,0.6116747557541969,-0.01507650386888107,-0.3995247494340062,0.5605271290682085,783.6996336996338,804.6520146520147,769.1941391941392,778.0586080586081,937.6190476190476,-0.118591,0.064636,0.855408,29.981995,-17.286377,-91.673126,368278.388278,125599853.479853,50080219.780220,78.329758,1,2,1,1,2,85.000000
2025-11-11 15:53:45.801,,,,,,,,,,,,,,,,,,,,,,,,,,,,,,,,,,,,,,,,,,/muse/elements/blink
2025-11-11 15:53:46.042,1.464270578411375,0.8006930815608648,1.216087221376901,1.081307567124018,1.069122645748277,0.5387567632264864,1.008029482490522,0.8626628653423375,1.070366135983857,0.1701616686191137,0.3574057857928227,0.6242256015453334,0.7491208031032108,0.2715853979667224,-0.005822059903503986,1.078207715467707,0.6116747557541969,-0.01507650386888107,-0.3995247494340062,0.5605271290682085,807.4725274725275,782.4908424908425,809.0842490842491,807.4725274725275,718.8278388278388,-0.004028,0.035156,0.950134,0.291595,-47.731934,-63.964081,304615.384615,126054358.974359,50054432.234432,80.458237,1,2,1,1,2,85.000000
2025-11-11 15:53:46.141,,,,,,,,,,,,,,,,,,,,,,,,,,,,,,,,,,,,,,,,,,/muse/elements/blink
2025-11-11 15:53:46.653,,,,,,,,,,,,,,,,,,,,,,,,,,,,,,,,,,,,,,,,,,/muse/elements/blink
2025-11-11 15:53:47.046,1.464270578411375,0.7114422885877992,1.698785576471248,1.081307567124018,1.069122645748277,0.4689657804934332,1.540179469443502,0.8626628653423375,1.070366135983857,0.2045960623927897,0.8640165550224829,0.6242256015453334,0.7491208031032108,0.1476027809932783,0.1460616210582333,1.078207715467707,0.6116747557541969,-0.1721393144537809,-0.3084243261241625,0.5605271290682085,829.2307692307693,791.7582417582418,814.7252747252747,809.8901098901099,737.3626373626374,-0.108459,0.107117,0.910461,4.770203,21.391144,-4.994507,308644.688645,125466886.446886,49884395.604396,80.458237,1,2,1,1,2,85.000000
2025-11-11 15:53:47.164,,,,,,,,,,,,,,,,,,,,,,,,,,,,,,,,,,,,,,,,,,/muse/elements/blink
2025-11-11 15:53:47.888,,,,,,,,,,,,,,,,,,,,,,,,,,,,,,,,,,,,,,,,,,/muse/elements/blink
2025-11-11 15:53:48.048,1.464270578411375,0.6575407800662434,1.53671045808558,1.081307567124018,1.069122645748277,0.3548283727505809,1.343814249712681,0.8626628653423375,1.070366135983857,0.2608386950939575,0.8640348718462971,0.6242256015453334,0.7491208031032108,0.005130982502108484,0.1473038248089919,1.078207715467707,0.6116747557541969,-0.1559766381130441,-0.1985231518431343,0.5605271290682085,778.0586080586081,789.7435897435897,802.2344322344322,779.2673992673992,845.7509157509157,0.092590,0.243469,1.056458,-18.392944,-19.335022,-2.721558,317509.157509,125776336.996337,49894065.934066,80.042610,1,2,1,1,2,85.000000
2025-11-11 15:53:48.874,,,,,,,,,,,,,,,,,,,,,,,,,,,,,,,,,,,,,,,,,,/muse/elements/blink
2025-11-11 15:53:49.042,1.464270578411375,0.3717624050391827,1.443271015126592,1.081307567124018,1.069122645748277,-0.09334912642674138,0.9764477400106558,0.8626628653423375,1.070366135983857,0.176258181864331,0.587622625314063,0.6242256015453334,0.7491208031032108,-0.1326033093301529,0.1669637933528385,1.078207715467707,0.6116747557541969,-0.2518693529361523,-0.1126082658770802,0.5605271290682085,806.2637362637363,820.7692307692308,776.0439560439561,823.1868131868132,712.7838827838829,-0.129639,0.116760,0.982788,-11.417084,10.504913,42.027130,336043.956044,125703809.523810,49923076.923077,78.393509,1,2,1,1,2,85.000000
2025-11-11 15:53:49.279,,,,,,,,,,,,,,,,,,,,,,,,,,,,,,,,,,,,,,,,,,/muse/elements/blink
2025-11-11 15:53:49.793,,,,,,,,,,,,,,,,,,,,,,,,,,,,,,,,,,,,,,,,,,/muse/elements/blink
2025-11-11 15:53:49.985,,,,,,,,,,,,,,,,,,,,,,,,,,,,,,,,,,,,,,,,,,/muse/elements/blink
2025-11-11 15:53:50.042,1.464270578411375,0.6698130029102612,1.443271015126592,1.081307567124018,1.069122645748277,0.1169146654147397,0.9764477400106558,0.8626628653423375,1.070366135983857,0.2719164590892306,0.587622625314063,0.6242256015453334,0.7491208031032108,0.03180714538368101,0.1669637933528385,1.078207715467707,0.6116747557541969,0.05348016489556639,-0.1126082658770802,0.5605271290682085,868.7179487179487,803.8461538461539,766.3736263736264,830.8424908424909,738.5714285714286,-0.136475,0.249023,0.956970,-3.454285,12.448883,65.078125,386007.326007,125744908.424908,49944029.304029,76.814308,1,2,1,1,2,85.000000
2025-11-11 15:53:50.601,,,,,,,,,,,,,,,,,,,,,,,,,,,,,,,,,,,,,,,,,,/muse/elements/blink
2025-11-11 15:53:51.042,1.464270578411375,0.6989821201220496,1.443271015126592,1.081307567124018,1.069122645748277,0.1899933981764055,0.9764477400106558,0.8626628653423375,1.070366135983857,0.2512919379035117,0.587622625314063,0.6242256015453334,0.7491208031032108,0.1786105522917851,0.1669637933528385,1.078207715467707,0.6116747557541969,0.2003968864488919,-0.1126082658770802,0.5605271290682085,765.9706959706959,800.2197802197802,793.3699633699634,768.3882783882784,1075.018315018315,-0.178589,0.150635,0.982117,0.261688,17.690125,18.520050,492380.952381,126070476.190476,50022197.802198,76.296646,1,2,1,1,2,85.000000
2025-11-11 15:53:52.042,1.464270578411375,0.5242566430826487,1.443271015126592,1.081307567124018,1.069122645748277,0.2735184779704924,0.9764477400106558,0.8626628653423375,1.070366135983857,-0.03327881962429803,0.587622625314063,0.6242256015453334,0.7491208031032108,-0.08871294564693268,0.1669637933528385,1.078207715467707,0.6116747557541969,-0.0462700224852963,-0.1126082658770802,0.5605271290682085,846.1538461538462,779.2673992673992,764.3589743589744,825.2014652014652,649.1208791208792,-0.145020,0.161438,0.849792,-3.872986,6.101074,50.588074,418241.758242,126317069.597070,50003663.003663,75.782997,1,2,1,1,2,85.000000
2025-11-11 15:53:52.069,,,,,,,,,,,,,,,,,,,,,,,,,,,,,,,,,,,,,,,,,,/muse/elements/blink
2025-11-11 15:53:52.666,,,,,,,,,,,,,,,,,,,,,,,,,,,,,,,,,,,,,,,,,,/muse/elements/blink
2025-11-11 15:53:53.042,1.464270578411375,0.1722508836101787,1.443271015126592,1.081307567124018,1.069122645748277,-0.1240398623349512,0.9764477400106558,0.8626628653423375,1.070366135983857,-0.07414962415734404,0.587622625314063,0.6242256015453334,0.7491208031032108,-0.02514418729742153,0.1669637933528385,1.078207715467707,0.6116747557541969,-0.07566881559014657,-0.1126082658770802,0.5605271290682085,624.9450549450549,855.8241758241759,690.6227106227107,602.7838827838827,717.2161172161173,-0.171814,0.228210,0.960510,2.250519,16.635895,1.143951,307032.967033,126188937.728938,49919047.619048,74.538544,1,2,1,1,2,85.000000
2025-11-11 15:53:53.153,,,,,,,,,,,,,,,,,,,,,,,,,,,,,,,,,,,,,,,,,,/muse/elements/blink
2025-11-11 15:53:53.749,,,,,,,,,,,,,,,,,,,,,,,,,,,,,,,,,,,,,,,,,,/muse/elements/blink
2025-11-11 15:53:54.042,1.464270578411375,0.2348728664140823,1.443271015126592,1.081307567124018,1.069122645748277,-0.07267711643478685,0.9764477400106558,0.8626628653423375,1.070366135983857,-0.09521509166566582,0.587622625314063,0.6242256015453334,0.7491208031032108,-0.009613350094288004,0.1669637933528385,1.078207715467707,0.6116747557541969,-0.06463256930994921,-0.1126082658770802,0.5605271290682085,783.6996336996338,793.3699633699634,801.8315018315019,816.3369963369963,932.3809523809524,-0.236023,0.170166,1.302917,-1.375732,-0.971985,-0.725250,301391.941392,125995531.135531,49840879.120879,77.715141,1,2,1,1,2,85.000000
2025-11-11 15:53:54.601,,,,,,,,,,,,,,,,,,,,,,,,,,,,,,,,,,,,,,,,,,/muse/elements/blink
2025-11-11 15:53:55.041,1.464270578411375,0.4810598121828858,1.443271015126592,1.081307567124018,1.069122645748277,0.0921491032928981,0.9764477400106558,0.8626628653423375,1.070366135983857,0.3102261158191644,0.587622625314063,0.6242256015453334,0.7491208031032108,0.4149531109152543,0.1669637933528385,1.078207715467707,0.6116747557541969,0.1996831133425248,-0.1126082658770802,0.5605271290682085,826.8131868131868,773.6263736263736,800.2197802197802,800.6227106227107,718.8278388278388,-0.132812,-0.093567,1.060181,-9.555359,8.620758,-45.182343,307032.967033,126036630.036630,49847326.007326,77.763794,1,2,1,1,2,85.000000
2025-11-11 15:53:55.094,,,,,,,,,,,,,,,,,,,,,,,,,,,,,,,,,,,,,,,,,,/muse/elements/blink
2025-11-11 15:53:55.393,,,,,,,,,,,,,,,,,,,,,,,,,,,,,,,,,,,,,,,,,,/muse/elements/blink
2025-11-11 15:53:56.042,1.464270578411375,0.6272997036708012,1.443271015126592,1.081307567124018,1.069122645748277,0.1496394157556106,0.9764477400106558,0.8626628653423375,1.070366135983857,0.247629518571825,0.587622625314063,0.6242256015453334,0.7491208031032108,0.3649451195798045,0.1669637933528385,1.078207715467707,0.6116747557541969,0.2210695328189675,-0.1126082658770802,0.5605271290682085,800.2197802197802,795.7875457875458,818.3516483516484,820.7692307692308,790.5494505494506,-0.235352,0.036865,0.984070,5.749664,-0.777588,-22.355652,311868.131868,126176043.956044,49918241.758242,101.252220,1,2,1,1,2,85.000000
2025-11-11 15:53:56.796,,,,,,,,,,,,,,,,,,,,,,,,,,,,,,,,,,,,,,,,,,/muse/elements/blink
2025-11-11 15:53:57.042,1.464270578411375,0.2310161474889986,0.2480847370336078,1.081307567124018,1.069122645748277,-0.2346816544693336,-0.4617225240878554,0.8626628653423375,1.070366135983857,0.01092887862851857,-0.005310382078883233,0.6242256015453334,0.7491208031032108,0.1220314045229023,-0.269006865898071,1.078207715467707,0.6116747557541969,-0.1148582297316397,-0.2277169440439008,0.5605271290682085,790.5494505494506,793.3699633699634,832.4542124542124,807.0695970695971,776.0439560439561,-0.153137,0.000549,0.996155,7.327271,-2.041168,-53.922729,429523.809524,125932673.992674,49892454.212454,114.459846,1,2,1,1,2,85.000000
2025-11-11 15:53:57.307,,,,,,,,,,,,,,,,,,,,,,,,,,,,,,,,,,,,,,,,,,/muse/elements/blink
2025-11-11 15:53:57.627,,,,,,,,,,,,,,,,,,,,,,,,,,,,,,,,,,,,,,,,,,/muse/elements/blink
2025-11-11 15:53:58.042,1.464270578411375,0.2476036476409996,0.2480847370336078,1.081307567124018,1.069122645748277,-0.2160835469732751,-0.4617225240878554,0.8626628653423375,1.070366135983857,0.001326632064824353,-0.005310382078883233,0.6242256015453334,0.7491208031032108,0.1074872392721593,-0.269006865898071,1.078207715467707,0.6116747557541969,-0.09983543033706153,-0.2277169440439008,0.5605271290682085,867.9120879120879,799.4139194139194,789.7435897435897,871.941391941392,644.2857142857143,-0.165710,-0.046204,0.885681,24.987488,2.542114,-55.006866,303809.523810,126149450.549451,49940805.860806,114.459846,1,2,1,1,2,85.000000
2025-11-11 15:53:59.048,1.464270578411375,0.8772128059754986,0.2480847370336078,1.081307567124018,1.069122645748277,0.2590965553737413,-0.4617225240878554,0.8626628653423375,1.070366135983857,0.04374817815040957,-0.005310382078883233,0.6242256015453334,0.7491208031032108,0.2310783624951027,-0.269006865898071,1.078207715467707,0.6116747557541969,-0.02778551735897129,-0.2277169440439008,0.5605271290682085,815.5311355311355,785.3113553113553,799.4139194139194,798.2051282051282,920.6959706959707,-0.201904,0.080750,0.942749,0.500946,5.779572,-10.759125,307032.967033,126261465.201465,49954505.494505,114.459846,1,2,1,1,2,85.000000
2025-11-11 15:53:59.379,,,,,,,,,,,,,,,,,,,,,,,,,,,,,,,,,,,,,,,,,,/muse/elements/blink
2025-11-11 15:53:59.656,,,,,,,,,,,,,,,,,,,,,,,,,,,,,,,,,,,,,,,,,,/muse/elements/blink
2025-11-11 15:54:00.042,1.464270578411375,0.9266609333647237,0.2480847370336078,1.081307567124018,1.069122645748277,1.009006145647713,-0.4617225240878554,0.8626628653423375,1.070366135983857,0.8133554961901296,-0.005310382078883233,0.6242256015453334,0.7491208031032108,0.05706033009247643,-0.269006865898071,1.078207715467707,0.6116747557541969,0.09984409207154178,-0.2277169440439008,0.5605271290682085,787.3260073260074,790.1465201465202,800.2197802197802,798.6080586080586,746.6300366300367,-0.360229,0.106201,0.922791,5.899200,-6.916046,-14.497528,317509.157509,126001978.021978,49916630.036630,114.459846,1,2,1,1,2,85.000000
2025-11-11 15:54:01.045,1.464270578411375,0.7583897205151694,0.2480847370336078,1.081307567124018,1.069122645748277,0.9188828334199349,-0.4617225240878554,0.8626628653423375,1.070366135983857,0.8115542789866154,-0.005310382078883233,0.6242256015453334,0.7491208031032108,0.09738964162730895,-0.269006865898071,1.078207715467707,0.6116747557541969,0.1241400995477044,-0.2277169440439008,0.5605271290682085,763.956043956044,785.3113553113553,816.3369963369963,791.3553113553114,715.2014652014652,-0.429993,0.060303,0.921326,14.273224,-32.755890,1.809387,306227.106227,125251721.611722,49873113.553114,114.459846,1,2,1,1,2,85.000000
2025-11-11 15:54:02.048,1.464270578411375,0.6038492773053674,0.2480847370336078,1.081307567124018,1.069122645748277,0.2004435275106778,-0.4617225240878554,0.8626628653423375,1.070366135983857,0.5422454058679567,-0.005310382078883233,0.6242256015453334,0.7491208031032108,0.4422442108492237,-0.269006865898071,1.078207715467707,0.6116747557541969,0.5140282745426351,-0.2277169440439008,0.5605271290682085,799.4139194139194,826.4102564102565,749.047619047619,794.981684981685,908.2051282051282,-0.635681,0.158630,0.737244,-50.961914,12.957306,66.498718,302197.802198,124736776.556777,49843296.703297,114.459846,1,2,1,1,2,85.000000
2025-11-11 15:54:02.510,,,,,,,,,,,,,,,,,,,,,,,,,,,,,,,,,,,,,,,,,,/muse/elements/blink
2025-11-11 15:54:03.051,1.464270578411375,0.5702533425719424,0.2480847370336078,1.081307567124018,1.069122645748277,-0.07408975990363779,-0.4617225240878554,0.8626628653423375,1.070366135983857,0.05537049591177576,-0.005310382078883233,0.6242256015453334,0.7491208031032108,0.5695203043698803,-0.269006865898071,1.078207715467707,0.6116747557541969,0.6216153073180686,-0.2277169440439008,0.5605271290682085,831.2454212454213,780.8791208791209,784.5054945054945,754.6886446886447,896.5201465201466,0.049561,0.111084,0.937805,-2.444916,-8.127289,43.462677,344102.564103,126207472.527473,50034285.714286,114.459846,1,2,1,1,2,85.000000
2025-11-11 15:54:03.402,,,,,,,,,,,,,,,,,,,,,,,,,,,,,,,,,,,,,,,,,,/muse/elements/blink
2025-11-11 15:54:04.042,1.464270578411375,0.8882602928330307,0.2480847370336078,1.081307567124018,1.069122645748277,0.3792867465957289,-0.4617225240878554,0.8626628653423375,1.070366135983857,0.3969421493939005,-0.005310382078883233,0.6242256015453334,0.7491208031032108,0.1961985465865027,-0.269006865898071,1.078207715467707,0.6116747557541969,0.07517342076745358,-0.2277169440439008,0.5605271290682085,828.021978021978,785.3113553113553,801.025641025641,834.0659340659341,599.9633699633699,0.049988,0.192993,0.953003,13.480682,11.387177,42.961731,390842.490842,126489523.809524,49999633.699634,114.459846,1,2,1,1,2,85.000000
2025-11-11 15:54:04.701,,,,,,,,,,,,,,,,,,,,,,,,,,,,,,,,,,,,,,,,,,/muse/elements/blink
2025-11-11 15:54:04.935,,,,,,,,,,,,,,,,,,,,,,,,,,,,,,,,,,,,,,,,,,/muse/elements/blink
2025-11-11 15:54:05.042,1.464270578411375,0.7575912943959637,0.2480847370336078,1.081307567124018,1.069122645748277,0.2814027109055014,-0.4617225240878554,0.8626628653423375,1.070366135983857,0.4750937074167719,-0.005310382078883233,0.6242256015453334,0.7491208031032108,0.2410887822385241,-0.269006865898071,1.078207715467707,0.6116747557541969,-0.04285342249394329,-0.2277169440439008,0.5605271290682085,776.8498168498169,803.8461538461539,790.5494505494506,760.3296703296703,1014.981684981685,0.027832,0.181152,0.986755,8.545990,13.196564,48.038483,327179.487179,126524175.824176,49908571.428571,114.459846,1,2,1,1,2,85.000000
2025-11-11 15:54:05.317,,,,,,,,,,,,,,,,,,,,,,,,,,,,,,,,,,,,,,,,,,/muse/elements/blink
2025-11-11 15:54:05.572,,,,,,,,,,,,,,,,,,,,,,,,,,,,,,,,,,,,,,,,,,/muse/elements/blink
2025-11-11 15:54:05.742,,,,,,,,,,,,,,,,,,,,,,,,,,,,,,,,,,,,,,,,,,/muse/elements/blink
2025-11-11 15:54:06.049,1.464270578411375,0.9463169126690587,0.2480847370336078,1.081307567124018,1.069122645748277,0.6017603525495046,-0.4617225240878554,0.8626628653423375,1.070366135983857,0.6392275878875771,-0.005310382078883233,0.6242256015453334,0.7491208031032108,0.066554316440103,-0.269006865898071,1.078207715467707,0.6116747557541969,-0.1934480293444824,-0.2277169440439008,0.5605271290682085,784.9084249084249,806.2637362637363,781.6849816849817,784.1025641025641,695.8608058608058,-0.004456,0.063110,0.900818,3.050537,-16.949921,31.798859,301391.941392,125527326.007326,49695824.175824,114.459846,1,2,1,1,2,85.000000
2025-11-11 15:54:06.060,,,,,,,,,,,,,,,,,,,,,,,,,,,,,,,,,,,,,,,,,,/muse/elements/blink
2025-11-11 15:54:06.272,,,,,,,,,,,,,,,,,,,,,,,,,,,,,,,,,,,,,,,,,,/muse/elements/blink
2025-11-11 15:54:06.760,,,,,,,,,,,,,,,,,,,,,,,,,,,,,,,,,,,,,,,,,,/muse/elements/blink
2025-11-11 15:54:07.047,1.464270578411375,1.418255754021206,1.106961721214673,1.081307567124018,1.069122645748277,1.434525488793059,0.4030257231710398,0.8626628653423375,1.070366135983857,0.9061139226725443,0.5873745055336616,0.6242256015453334,0.7491208031032108,0.0613290633506078,0.2383883805826708,1.078207715467707,0.6116747557541969,-0.09208328204129385,-0.1143356356656144,0.5605271290682085,831.6483516483516,797.8021978021978,801.8315018315019,831.2454212454213,539.92673992674,0.002808,0.115906,0.983032,4.613190,0.575714,14.841461,302197.802198,124952747.252747,49625714.285714,99.714943,1,2,1,1,2,85.000000
2025-11-11 15:54:07.463,,,,,,,,,,,,,,,,,,,,,,,,,,,,,,,,,,,,,,,,,,/muse/elements/blink
2025-11-11 15:54:08.042,1.464270578411375,1.494158829510454,1.106961721214673,1.081307567124018,1.069122645748277,1.665361319829498,0.4030257231710398,0.8626628653423375,1.070366135983857,0.8717373593632171,0.5873745055336616,0.6242256015453334,0.7491208031032108,0.2013583871330551,0.2383883805826708,1.078207715467707,0.6116747557541969,0.04906597725498639,-0.1143356356656144,0.5605271290682085,816.7399267399268,793.3699633699634,820.7692307692308,818.7545787545788,817.948717948718,-0.057129,0.054077,0.894409,-11.125488,-3.828125,-35.455017,300586.080586,124825421.245421,49674065.934066,88.952644,1,2,1,1,2,85.000000
2025-11-11 15:54:08.781,,,,,,,,,,,,,,,,,,,,,,,,,,,,,,,,,,,,,,,,,,/muse/elements/blink
2025-11-11 15:54:09.050,1.464270578411375,1.406356090564303,1.106961721214673,1.081307567124018,1.069122645748277,0.9566224548444415,0.4030257231710398,0.8626628653423375,1.070366135983857,0.5751364914402649,0.5873745055336616,0.6242256015453334,0.7491208031032108,-0.06198558472417822,0.2383883805826708,1.078207715467707,0.6116747557541969,0.003754801489972817,-0.1143356356656144,0.5605271290682085,1042.380952380953,811.9047619047619,762.7472527472528,1004.908424908425,834.8717948717949,-0.016663,0.045837,0.920227,-14.310608,-26.580048,-120.473785,313479.853480,124995457.875458,49840073.260073,85.609642,1,2,1,1,2,85.000000
2025-11-11 15:54:09.122,,,,,,,,,,,,,,,,,,,,,,,,,,,,,,,,,,,,,,,,,,/muse/elements/blink
2025-11-11 15:54:09.594,,,,,,,,,,,,,,,,,,,,,,,,,,,,,,,,,,,,,,,,,,/muse/elements/blink
2025-11-11 15:54:10.042,1.464270578411375,1.406356090564303,1.106961721214673,1.081307567124018,1.069122645748277,0.9566224548444415,0.4030257231710398,0.8626628653423375,1.070366135983857,0.5751364914402649,0.5873745055336616,0.6242256015453334,0.7491208031032108,-0.06198558472417822,0.2383883805826708,1.078207715467707,0.6116747557541969,0.003754801489972817,-0.1143356356656144,0.5605271290682085,794.5787545787546,799.4139194139194,835.6776556776557,809.4871794871796,647.5091575091575,0.030884,-0.085449,0.991577,-1.973877,0.785065,-12.770386,328791.208791,125549890.109890,49963369.963370,86.519180,1,2,1,1,2,85.000000
2025-11-11 15:54:10.085,,,,,,,,,,,,,,,,,,,,,,,,,,,,,,,,,,,,,,,,,,/muse/elements/blink
2025-11-11 15:54:10.532,,,,,,,,,,,,,,,,,,,,,,,,,,,,,,,,,,,,,,,,,,/muse/elements/blink
2025-11-11 15:54:10.938,,,,,,,,,,,,,,,,,,,,,,,,,,,,,,,,,,,,,,,,,,/muse/elements/blink
2025-11-11 15:54:11.042,1.464270578411375,1.406356090564303,1.106961721214673,1.081307567124018,1.069122645748277,0.9566224548444415,0.4030257231710398,0.8626628653423375,1.070366135983857,0.5751364914402649,0.5873745055336616,0.6242256015453334,0.7491208031032108,-0.06198558472417822,0.2383883805826708,1.078207715467707,0.6116747557541969,0.003754801489972817,-0.1143356356656144,0.5605271290682085,801.025641025641,816.7399267399268,776.4468864468864,790.1465201465202,871.5384615384615,0.064026,-0.014221,0.979248,-8.523560,15.372314,-56.046143,389230.769231,125584542.124542,49989157.509158,86.106819,1,2,1,1,2,85.000000
2025-11-11 15:54:12.022,,,,,,,,,,,,,,,,,,,,,,,,,,,,,,,,,,,,,,,,,,/muse/elements/blink
2025-11-11 15:54:12.042,1.464270578411375,0.03424959743250641,0.8459197468915746,1.081307567124018,1.069122645748277,-0.1910989875024797,0.307801499710997,0.8626628653423375,1.070366135983857,-0.4340238859765924,-0.06840240382205842,0.6242256015453334,0.7491208031032108,0.2937204115371236,0.1051926454856529,1.078207715467707,0.6116747557541969,0.3246780547645509,-0.1196792706420599,0.5605271290682085,790.952380952381,805.4578754578755,813.5164835164835,809.0842490842491,852.1978021978023,-0.026428,-0.012512,0.780151,-9.607697,8.321686,-58.304138,301391.941392,125744908.424908,49972234.432234,86.508293,1,2,1,1,2,85.000000
2025-11-11 15:54:12.618,,,,,,,,,,,,,,,,,,,,,,,,,,,,,,,,,,,,,,,,,,/muse/elements/blink
2025-11-11 15:54:13.042,1.464270578411375,0.7384946750158828,0.947875244243091,1.081307567124018,1.069122645748277,0.5290718889628429,0.3784865985255992,0.8626628653423375,1.070366135983857,0.6448217016003175,-0.01394755592921759,0.6242256015453334,0.7491208031032108,0.2874440282551755,0.07203056545760123,1.078207715467707,0.6116747557541969,0.3016817426318134,-0.1187613462965453,0.5605271290682085,953.3333333333334,778.0586080586081,819.1575091575091,940.8424908424909,675.3113553113553,-0.167969,0.042664,0.983704,13.525543,-12.643280,-13.129272,308644.688645,125268644.688645,49923076.923077,81.216766,1,2,1,1,2,85.000000
2025-11-11 15:54:13.044,,,,,,,,,,,,,,,,,,,,,,,,,,,,,,,,,,,,,,,,,,/muse/elements/blink
2025-11-11 15:54:14.042,1.464270578411375,1.105499044842758,0.9078236846805169,1.081307567124018,1.069122645748277,0.8139668366477976,0.2426344492372935,0.8626628653423375,1.070366135983857,0.7472123673528783,-0.2162449855121288,0.6242256015453334,0.7491208031032108,0.2552735288020444,0.02036638858289016,1.078207715467707,0.6116747557541969,0.313172030125602,-0.1365458283085239,0.5605271290682085,681.7582417582418,796.996336996337,811.0989010989011,676.1172161172161,950.5128205128206,-0.038757,0.093750,0.835571,6.788940,-3.932800,24.157562,319926.739927,125270256.410256,49836849.816850,75.280067,1,2,1,1,2,85.000000
2025-11-11 15:54:14.256,,,,,,,,,,,,,,,,,,,,,,,,,,,,,,,,,,,,,,,,,,/muse/elements/blink
2025-11-11 15:54:15.042,1.464270578411375,0.2987352039505094,0.9078236846805169,1.081307567124018,1.069122645748277,0.08709466196310385,0.2426344492372935,0.8626628653423375,1.070366135983857,0.2655573107923648,-0.2162449855121288,0.6242256015453334,0.7491208031032108,0.2431675284862474,0.02036638858289016,1.078207715467707,0.6116747557541969,0.2000796356650713,-0.1365458283085239,0.5605271290682085,789.7435897435897,809.8901098901099,765.1648351648352,743.4065934065934,670.0732600732601,-0.131042,0.143738,0.966431,-7.581482,-5.846863,36.135406,336849.816850,125221904.761905,49832014.652015,73.042259,1,2,1,1,2,85.000000
2025-11-11 15:54:16.042,1.464270578411375,0.3493700274651864,0.9078236846805169,1.081307567124018,1.069122645748277,-0.03388543435570635,0.2426344492372935,0.8626628653423375,1.070366135983857,0.2733536764115497,-0.2162449855121288,0.6242256015453334,0.7491208031032108,0.376243481797795,0.02036638858289016,1.078207715467707,0.6116747557541969,0.1049340644024073,-0.1365458283085239,0.5605271290682085,800.2197802197802,802.2344322344322,774.8351648351648,812.7106227106227,938.8278388278388,-0.041382,0.110474,0.981079,-8.082428,1.428070,47.373047,367472.527473,125352454.212454,49819926.739927,75.084709,1,2,1,1,2,85.000000
2025-11-11 15:54:16.429,,,,,,,,,,,,,,,,,,,,,,,,,,,,,,,,,,,,,,,,,,/muse/elements/blink
2025-11-11 15:54:16.790,,,,,,,,,,,,,,,,,,,,,,,,,,,,,,,,,,,,,,,,,,/muse/elements/blink
2025-11-11 15:54:17.042,1.464270578411375,0.3927956440297314,0.9078236846805169,1.081307567124018,1.069122645748277,0.1789496101718454,0.2426344492372935,0.8626628653423375,1.070366135983857,0.2272655541444887,-0.2162449855121288,0.6242256015453334,0.7491208031032108,0.3315414002613786,0.02036638858289016,1.078207715467707,0.6116747557541969,-0.1885206532059568,-0.1365458283085239,0.5605271290682085,790.5494505494506,812.7106227106227,776.0439560439561,769.1941391941392,753.4798534798535,-0.248901,0.170898,0.878662,3.693542,10.654449,45.107574,516556.776557,125356483.516484,49873113.553114,77.302879,1,2,1,1,2,85.000000
2025-11-11 15:54:18.042,1.464270578411375,0.3441278303342052,0.9078236846805169,1.081307567124018,1.069122645748277,0.4250467306330939,0.2426344492372935,0.8626628653423375,1.070366135983857,-0.02566770880477498,-0.2162449855121288,0.6242256015453334,0.7491208031032108,0.3562115498629802,0.02036638858289016,1.078207715467707,0.6116747557541969,-0.1008090397816883,-0.1365458283085239,0.5605271290682085,810.2930402930403,803.8461538461539,795.3846153846154,800.6227106227107,653.1501831501831,-0.231201,0.192078,1.010071,-15.686340,12.359161,17.361145,450476.190476,125457216.117216,49975457.875458,77.508896,1,2,1,1,2,85.000000
2025-11-11 15:54:19.042,1.125874958255753,0.2110096841811395,0.9078236846805169,1.26689373810611,0.7108912893807637,0.1133955556413652,0.2426344492372935,0.8944562134017274,0.7795779066523904,0.1204113037117379,-0.2162449855121288,1.137328960037276,1.016853736167032,0.2799254137422367,0.02036638858289016,0.9501738703109674,0.6663357912092136,-0.1205718205905742,-0.1365458283085239,0.8167086840169709,791.7582417582418,801.4285714285714,780.0732600732601,757.5091575091575,761.5384615384615,-0.266724,0.089783,1.067139,-5.667419,-3.783264,27.537079,344908.424908,125981025.641026,50051208.791209,79.913925,1,1,1,1,1,85.000000
2025-11-11 15:54:19.326,,,,,,,,,,,,,,,,,,,,,,,,,,,,,,,,,,,,,,,,,,/muse/elements/blink
2025-11-11 15:54:20.042,1.018976135172987,0.7202013267244807,1.044928947975803,1.04475997861942,0.625299952906053,0.2141166720428873,0.5459046679985733,0.7420458933674738,0.484442024914095,0.3833998499539573,0.5893107162779121,1.072443981568178,1.052984891101673,0.2217022154650706,0.4102034480544834,0.7452670724355845,0.5732131822023008,-0.03622873436461404,0.1486430075819669,0.6115731690527911,812.7106227106227,806.2637362637363,779.2673992673992,807.0695970695971,789.7435897435897,-0.159790,0.093567,0.836975,-21.047211,-1.555176,5.166473,301391.941392,126236483.516484,50032673.992674,83.856163,1,1,1,1,1,85.000000
2025-11-11 15:54:20.986,,,,,,,,,,,,,,,,,,,,,,,,,,,,,,,,,,,,,,,,,,/muse/elements/blink
2025-11-11 15:54:21.041,1.018976135172987,0.8090247617133287,1.132305437944371,1.04475997861942,0.625299952906053,0.3633452425425149,0.6041927151655742,0.7420458933674738,0.484442024914095,0.4256192775333729,0.6659944794238459,1.072443981568178,1.052984891101673,0.3160334052770642,0.1639148559261,0.7452670724355845,0.5732131822023008,-0.01440802996212585,0.001427248907427159,0.6115731690527911,1091.538461538462,725.6776556776557,777.2527472527473,996.0439560439561,881.2087912087912,0.012085,0.093506,1.083252,11.005859,-25.271606,-9.525452,303809.523810,125251721.611722,49752234.432234,86.770950,1,1,1,1,1,85.000000
2025-11-11 15:54:21.901,,,,,,,,,,,,,,,,,,,,,,,,,,,,,,,,,,,,,,,,,,/muse/elements/blink
2025-11-11 15:54:22.042,1.018976135172987,0.865647776863224,0.9920007764058374,1.04475997861942,0.625299952906053,0.5440193066046978,0.5077751710920735,0.7420458933674738,0.484442024914095,0.2745898459717768,0.6562386253518857,1.072443981568178,1.052984891101673,0.3101459214452224,0.4006140404394792,0.7452670724355845,0.5732131822023008,-0.03666590798320359,0.1553828931414104,0.6115731690527911,599.1575091575091,788.9377289377289,790.952380952381,624.1391941391942,886.4468864468864,-0.233154,-0.028320,0.841492,-5.712280,19.252777,-42.700043,305421.245421,125329890.109890,49718388.278388,86.901558,1,2,1,1,2,85.000000
2025-11-11 15:54:22.199,,,,,,,,,,,,,,,,,,,,,,,,,,,,,,,,,,,,,,,,,,/muse/elements/blink
2025-11-11 15:54:22.601,,,,,,,,,,,,,,,,,,,,,,,,,,,,,,,,,,,,,,,,,,/muse/elements/blink
