TimeStamp,Delta_TP9,Delta_AF7,Delta_AF8,Delta_TP10,Theta_TP9,Theta_AF7,Theta_AF8,Theta_TP10,Alpha_TP9,Alpha_AF7,Alpha_AF8,Alpha_TP10,Beta_TP9,Beta_AF7,Beta_AF8,Beta_TP10,Gamma_TP9,Gamma_AF7,Gamma_AF8,Gamma_TP10,RAW_TP9,RAW_AF7,RAW_AF8,RAW_TP10,AUX_RIGHT,Accelerometer_X,Accelerometer_Y,Accelerometer_Z,Gyro_X,Gyro_Y,Gyro_Z,PPG_Ambient,PPG_IR,PPG_Red,Heart_Rate,HeadBandOn,HSI_TP9,HSI_AF7,HSI_AF8,HSI_TP10,Battery,Elements
2025-11-11 16:44:18.652,,,,,,,,,,,,,,,,,,,,,,,,,,,,,,,,,,,,,,,,,,/muse/event/connected Muse-135C
2025-11-11 16:44:18.732,,,,,,,,,,,,,,,,,,,,,,,,,,,,,,,,,,,,,,,,,,/muse/elements/blink
2025-11-11 16:44:18.946,,,,,,,,,,,,,,,,,,,,,,,,,,,,,,,,,,,,,,,,,,/muse/elements/blink
2025-11-11 16:44:19.288,,,,,,,,,,,,,,,,,,,,,,,,,,,,,,,,,,,,,,,,,,/muse/elements/blink
2025-11-11 16:44:19.652,1.344652676828491,0.7175326808829309,1.297263258140441,1.323962061168102,0.8273752076343124,0.6132171202235321,1.107968921014883,1.190834955010738,0.8111525590576385,0.3051659997355938,0.6541238108214475,1.332536290777046,0.5283987156733263,0.09408858743162501,0.215339959745576,0.6753777180051659,0.2015804532367188,-0.3074094805856292,-0.1844932411491712,0.1678688758239278,832.4542124542124,724.8717948717949,804.2490842490843,813.1135531135532,586.2637362637363,0.399292,0.075623,0.932922,13.570404,-4.015045,48.816071,355384.615385,132297362.637363,67880879.120879,92.537277,1,2,2,1,2,55.000000
2025-11-11 16:44:20.652,1.344652676828491,0.7175326808829309,1.290502813867539,1.323962061168102,0.8273752076343124,0.6132171202235321,1.1756977381571,1.190834955010738,0.8111525590576385,0.3051659997355938,0.6012127857194787,1.332536290777046,0.5283987156733263,0.09408858743162501,0.2828901676515789,0.6753777180051659,0.2015804532367188,-0.3074094805856292,-0.2662892831469317,0.1678688758239278,837.2893772893773,772.8205128205128,805.8608058608058,817.948717948718,531.0622710622711,0.397156,0.186157,0.980835,20.419159,-24.665985,37.787781,306227.106227,131554358.974359,67603663.003663,95.316322,1,2,1,1,2,55.000000
2025-11-11 16:44:20.694,,,,,,,,,,,,,,,,,,,,,,,,,,,,,,,,,,,,,,,,,,/muse/elements/blink
2025-11-11 16:44:21.314,,,,,,,,,,,,,,,,,,,,,,,,,,,,,,,,,,,,,,,,,,/muse/elements/blink
2025-11-11 16:44:21.653,1.344652676828491,0.7175326808829309,0.9722755501210393,1.323962061168102,0.8273752076343124,0.6132171202235321,0.3113042918503521,1.190834955010738,0.8111525590576385,0.3051659997355938,0.3103574040493824,1.332536290777046,0.5283987156733263,0.09408858743162501,0.03425831763747605,0.6753777180051659,0.2015804532367188,-0.3074094805856292,-0.0981342546340052,0.1678688758239278,800.6227106227107,712.3809523809524,741.3919413919414,811.9047619047619,763.1501831501831,0.222107,0.074219,0.935608,18.811646,-3.611298,45.630951,303809.523810,130220659.340659,67124981.684982,95.559288,1,2,1,1,2,55.000000
2025-11-11 16:44:22.653,1.344652676828491,0.7175326808829309,1.079165133994505,1.323962061168102,0.8273752076343124,0.6132171202235321,0.9230577942391194,1.190834955010738,0.8111525590576385,0.3051659997355938,0.2954742463668063,1.332536290777046,0.5283987156733263,0.09408858743162501,0.2592820731539853,0.6753777180051659,0.2015804532367188,-0.3074094805856292,0.08087090566456713,0.1678688758239278,813.919413919414,594.7252747252747,821.978021978022,806.2637362637363,508.4981684981685,0.337585,0.163086,0.882385,16.359253,1.891632,60.696716,303809.523810,128885347.985348,66796996.336996,95.559288,1,2,1,1,2,55.000000
2025-11-11 16:44:23.660,1.61899214899736,0.7175326808829309,1.1370172071348,1.323962061168102,1.314534248874221,0.6132171202235321,0.3564774698795911,1.190834955010738,1.202024634082146,0.3051659997355938,0.2186311357857483,1.332536290777046,1.057936777202328,0.09408858743162501,0.1812042050994558,0.6753777180051659,0.8952537542119975,-0.3074094805856292,-0.2375926511908567,0.1678688758239278,779.2673992673992,750.2564102564103,815.1282051282052,791.7582417582418,517.7655677655678,0.290833,0.142395,0.849426,1.906586,15.985413,18.849030,307032.967033,128040000.000000,66963809.523810,97.490211,1,1,1,1,1,55.000000
2025-11-11 16:44:23.841,,,,,,,,,,,,,,,,,,,,,,,,,,,,,,,,,,,,,,,,,,/muse/elements/blink
2025-11-11 16:44:24.160,,,,,,,,,,,,,,,,,,,,,,,,,,,,,,,,,,,,,,,,,,/muse/elements/blink
2025-11-11 16:44:24.436,,,,,,,,,,,,,,,,,,,,,,,,,,,,,,,,,,,,,,,,,,/muse/elements/blink
2025-11-11 16:44:24.661,1.453969934194679,0.7175326808829309,0.945352586837242,1.323962061168102,1.485493834653508,0.6132171202235321,0.3316306439610328,1.190834955010738,1.149202058827891,0.3051659997355938,0.6341015691576825,1.332536290777046,1.049588706964898,0.09408858743162501,0.04137363168668031,0.6753777180051659,1.000114259066268,-0.3074094805856292,-0.378225477919048,0.1678688758239278,798.2051282051282,784.9084249084249,810.6959706959707,805.8608058608058,848.1684981684982,0.191162,-0.014648,0.904785,3.200073,-16.015320,27.327728,309450.549451,127121318.681319,67306300.366300,98.975159,1,1,1,1,1,55.000000
2025-11-11 16:44:25.663,1.453969934194679,0.7175326808829309,0.584187199613553,1.323962061168102,1.485493834653508,0.6132171202235321,0.3105552418036509,1.190834955010738,1.149202058827891,0.3051659997355938,0.6328998006662029,1.332536290777046,1.049588706964898,0.09408858743162501,-0.1133365868436426,0.6753777180051659,1.000114259066268,-0.3074094805856292,-0.5394704110901216,0.1678688758239278,815.1282051282052,720.8424908424909,784.9084249084249,817.948717948718,857.8388278388279,0.525269,0.167480,0.886536,-5.046844,-5.794525,-11.364746,310256.410256,127132600.732601,67796263.736264,96.724113,1,1,1,1,1,55.000000
2025-11-11 16:44:26.077,,,,,,,,,,,,,,,,,,,,,,,,,,,,,,,,,,,,,,,,,,/muse/elements/blink
2025-11-11 16:44:26.653,1.453969934194679,0.7175326808829309,0.584187199613553,1.323962061168102,1.485493834653508,0.6132171202235321,0.3105552418036509,1.190834955010738,1.149202058827891,0.3051659997355938,0.6328998006662029,1.332536290777046,1.049588706964898,0.09408858743162501,-0.1133365868436426,0.6753777180051659,1.000114259066268,-0.3074094805856292,-0.5394704110901216,0.1678688758239278,796.5934065934066,815.934065934066,824.7985347985348,795.3846153846154,724.8717948717949,0.332336,0.113586,0.801758,-36.763458,14.422760,-60.816345,303809.523810,126985934.065934,68108937.728938,96.733368,1,2,1,1,2,55.000000
2025-11-11 16:44:26.785,,,,,,,,,,,,,,,,,,,,,,,,,,,,,,,,,,,,,,,,,,/muse/elements/blink
2025-11-11 16:44:27.653,1.720276583680236,0.7175326808829309,0.584187199613553,1.467212750401041,1.568852613201335,0.6132171202235321,0.3105552418036509,1.285140328726382,1.061938493499074,0.3051659997355938,0.6328998006662029,1.148960667909956,0.747876039901481,0.09408858743162501,-0.1133365868436426,0.6765974178508827,0.5744074209540764,-0.3074094805856292,-0.5394704110901216,0.3602290960503901,799.8168498168499,825.6043956043957,811.5018315018315,804.2490842490843,586.6666666666666,0.380493,0.035339,0.909424,-21.697693,-7.282410,-39.410248,305421.245421,127392087.912088,68428864.468864,95.079689,1,1,1,1,1,55.000000
2025-11-11 16:44:28.511,,,,,,,,,,,,,,,,,,,,,,,,,,,,,,,,,,,,,,,,,,/muse/elements/blink
2025-11-11 16:44:28.653,1.583393813471334,0.7175326808829309,0.584187199613553,1.358111274476963,1.4469475339326,0.6132171202235321,0.3105552418036509,1.145400781407526,1.246093479381172,0.3051659997355938,0.6328998006662029,1.206655448896999,0.6973725817333079,0.09408858743162501,-0.1133365868436426,0.7455390798003805,0.5074065931804754,-0.3074094805856292,-0.5394704110901216,0.290423285027969,847.3626373626374,782.4908424908425,814.7252747252747,839.7069597069598,607.6190476190476,0.416748,0.075317,1.082214,-18.385468,21.241608,-23.193054,302197.802198,127860293.040293,68617435.897436,89.741165,1,1,1,1,1,55.000000
2025-11-11 16:44:29.652,1.583393813471334,0.7175326808829309,0.584187199613553,1.215575988155944,1.4469475339326,0.6132171202235321,0.3105552418036509,0.9264546369593748,1.246093479381172,0.3051659997355938,0.6328998006662029,1.180669785581694,0.6973725817333079,0.09408858743162501,-0.1133365868436426,0.8473747341104453,0.5074065931804754,-0.3074094805856292,-0.5394704110901216,0.2018180133364483,805.0549450549451,853.0036630036631,816.7399267399268,814.3223443223443,568.9377289377289,0.303711,0.167236,0.942566,-21.032257,-14.325562,-64.330444,301391.941392,127731355.311355,68584395.604396,85.807030,1,1,1,1,1,55.000000
2025-11-11 16:44:30.343,,,,,,,,,,,,,,,,,,,,,,,,,,,,,,,,,,,,,,,,,,/muse/elements/blink
2025-11-11 16:44:30.652,1.379907172181166,0.7175326808829309,0.584187199613553,1.402284933820059,0.9551206946313102,0.6132171202235321,0.3105552418036509,1.155162453822171,1.153746595229576,0.3051659997355938,0.6328998006662029,1.116051164431348,0.9303938610959243,0.09408858743162501,-0.1133365868436426,0.5186008630791921,0.2123239432103668,-0.3074094805856292,-0.5394704110901216,0.4350754433892735,784.9084249084249,841.3186813186813,921.9047619047619,794.5787545787546,1060.512820512821,0.297791,0.014954,0.915100,-13.458252,-4.433746,-37.967224,305421.245421,127511355.311355,68511062.271062,82.591530,1,1,1,1,1,55.000000
2025-11-11 16:44:31.643,,,,,,,,,,,,,,,,,,,,,,,,,,,,,,,,,,,,,,,,,,/muse/elements/blink
2025-11-11 16:44:31.653,1.375736464026463,0.7175326808829309,0.584187199613553,1.364019841099681,1.116097453387942,0.6132171202235321,0.3105552418036509,1.051659869149606,1.21932335731664,0.3051659997355938,0.6328998006662029,1.158049800718529,0.8926085374732199,0.09408858743162501,-0.1133365868436426,0.5650010949897296,0.3593335795536503,-0.3074094805856292,-0.5394704110901216,0.373394979430725,834.4688644688645,726.0805860805862,747.8388278388279,824.7985347985348,852.6007326007326,0.403015,0.179993,0.925232,1.368256,6.071167,-5.091705,310256.410256,127197069.597070,68472380.952381,80.583618,1,1,1,4,1,55.000000
2025-11-11 16:44:32.071,,,,,,,,,,,,,,,,,,,,,,,,,,,,,,,,,,,,,,,,,,/muse/elements/blink
2025-11-11 16:44:32.656,1.161662087748604,0.7175326808829309,0.584187199613553,1.011626521979413,0.9202705673528366,0.6132171202235321,0.3105552418036509,0.6556565363484594,1.134665292477644,0.3051659997355938,0.6328998006662029,0.7456972265208929,0.5641070210867525,0.09408858743162501,-0.1133365868436426,0.4750683784262613,0.3425744067402651,-0.3074094805856292,-0.5394704110901216,0.1466840688095011,816.3369963369963,783.6996336996338,788.5347985347986,809.4871794871796,655.5677655677656,0.320557,0.127869,0.876404,15.402222,6.886139,2.123413,326373.626374,126782051.282051,68424835.164835,77.827286,1,1,1,2,1,55.000000
2025-11-11 16:44:33.583,,,,,,,,,,,,,,,,,,,,,,,,,,,,,,,,,,,,,,,,,,/muse/elements/blink
2025-11-11 16:44:33.658,1.280127066160368,0.7175326808829309,0.584187199613553,1.263978841769085,0.9096061825209045,0.6132171202235321,0.3105552418036509,0.9384895447111515,1.075940512860327,0.3051659997355938,0.6328998006662029,1.122483500113413,0.5702918280935474,0.09408858743162501,-0.1133365868436426,0.562916822097657,0.2530254968385107,-0.3074094805856292,-0.5394704110901216,0.2899703733487061,718.8278388278388,837.2893772893773,709.1575091575091,754.2857142857143,684.5787545787546,0.331787,0.158936,0.870056,36.352234,1.891632,90.117950,355384.615385,126675677.655678,68545714.285714,77.934303,1,1,1,1,1,55.000000
2025-11-11 16:44:34.662,1.310422176877678,0.7175326808829309,0.584187199613553,1.241244857436028,0.856237164813994,0.6132171202235321,0.3105552418036509,0.9583435341094687,1.075940512860327,0.3051659997355938,0.6328998006662029,1.103771759747507,0.4307734674819712,0.09408858743162501,-0.1133365868436426,0.5247645908639031,0.1934946189119818,-0.3074094805856292,-0.5394704110901216,0.3114448442177987,831.6483516483516,770.8058608058608,678.9377289377289,820.3663003663004,708.7545787545788,0.444519,0.187683,0.824097,24.770660,1.644897,50.303955,303003.663004,127248644.688645,68887399.267399,78.895676,1,1,1,1,1,55.000000
2025-11-11 16:44:35.661,1.425756512846735,0.7175326808829309,0.584187199613553,1.60529108149422,1.275601320556784,0.6132171202235321,0.3105552418036509,1.184783637451085,1.225061293120619,0.3051659997355938,0.6328998006662029,1.244782731227,0.5654823912868017,0.09408858743162501,-0.1133365868436426,1.033676964398067,0.3848223341665925,-0.3074094805856292,-0.5394704110901216,0.3355606781254088,826.007326007326,703.5164835164835,663.2234432234433,811.9047619047619,607.6190476190476,0.481995,0.107849,0.819397,16.583557,2.355194,27.836151,302197.802198,127243809.523810,68910769.230769,79.395767,1,1,1,1,1,55.000000
2025-11-11 16:44:35.736,,,,,,,,,,,,,,,,,,,,,,,,,,,,,,,,,,,,,,,,,,/muse/elements/blink
2025-11-11 16:44:36.524,,,,,,,,,,,,,,,,,,,,,,,,,,,,,,,,,,,,,,,,,,/muse/elements/blink
2025-11-11 16:44:36.652,1.617619853172232,0.7175326808829309,0.584187199613553,1.54383199520793,1.279522298576404,0.6132171202235321,0.3105552418036509,1.129256232941193,1.378047558950965,0.3051659997355938,0.6328998006662029,1.407593860063465,0.4833365954836205,0.09408858743162501,-0.1133365868436426,0.9381924276629712,0.272704899943385,-0.3074094805856292,-0.5394704110901216,0.3230291505256089,800.2197802197802,858.2417582417582,766.3736263736264,796.996336996337,890.0732600732601,0.383667,0.022156,0.888123,18.549957,-4.336548,59.672394,305421.245421,127856263.736264,69140439.560440,79.938469,1,1,1,1,1,55.000000
2025-11-11 16:44:37.664,1.58402907263084,0.7175326808829309,0.584187199613553,1.325274252103684,1.247861974243645,0.6132171202235321,0.3105552418036509,1.099164654538957,1.255740540838444,0.3051659997355938,0.6328998006662029,1.370465586084366,0.5454568835547998,0.09408858743162501,-0.1133365868436426,1.238113815226682,0.2948869269416136,-0.3074094805856292,-0.5394704110901216,0.6106799755770088,690.6227106227107,863.4798534798535,915.4578754578755,680.1465201465202,665.6410256410256,0.370911,0.191406,0.910706,23.282776,-4.605713,39.126129,306227.106227,128381684.981685,69295970.695971,80.991249,1,1,1,1,1,55.000000
2025-11-11 16:44:37.845,,,,,,,,,,,,,,,,,,,,,,,,,,,,,,,,,,,,,,,,,,/muse/elements/blink
2025-11-11 16:44:38.652,1.308596998544054,0.7175326808829309,0.584187199613553,1.151960578092709,1.098177128767553,0.6132171202235321,0.3105552418036509,1.014754475409988,1.147505655567718,0.3051659997355938,0.6328998006662029,1.325822586903073,0.6009514507748606,0.09408858743162501,-0.1133365868436426,1.330160300405559,0.3430758873166208,-0.3074094805856292,-0.5394704110901216,0.6678504533160556,820.3663003663004,803.8461538461539,918.2783882783883,815.5311355311355,648.3150183150183,0.365601,0.021667,0.937073,-8.516083,11.020813,-12.426453,308644.688645,128382490.842491,69322564.102564,81.609161,1,1,1,1,1,55.000000
2025-11-11 16:44:39.653,1.160717097949771,0.7175326808829309,0.584187199613553,1.439704619016307,0.8705333663556613,0.6132171202235321,0.3105552418036509,1.231512057194146,0.7825906723782076,0.3051659997355938,0.6328998006662029,1.068678033603574,0.6342389892556854,0.09408858743162501,-0.1133365868436426,0.6687488932365402,0.1865215464540249,-0.3074094805856292,-0.5394704110901216,0.1568686172191333,799.8168498168499,669.6703296703297,714.3956043956044,796.996336996337,752.6739926739926,0.451050,0.032593,0.705139,-6.048737,15.925598,-0.343933,308644.688645,128632307.692308,69475677.655678,81.939133,1,1,1,1,1,55.000000
2025-11-11 16:44:39.829,,,,,,,,,,,,,,,,,,,,,,,,,,,,,,,,,,,,,,,,,,/muse/elements/blink
2025-11-11 16:44:40.087,,,,,,,,,,,,,,,,,,,,,,,,,,,,,,,,,,,,,,,,,,/muse/elements/blink
2025-11-11 16:44:40.654,1.532986629004886,0.7175326808829309,0.584187199613553,1.753520464090331,1.2848750229299,0.6132171202235321,0.3105552418036509,1.399132462454707,1.24122451417208,0.3051659997355938,0.6328998006662029,1.226551065475931,0.7036019036927765,0.09408858743162501,-0.1133365868436426,0.6112124882546309,0.2640471615155327,-0.3074094805856292,-0.5394704110901216,0.1015444134421244,825.6043956043957,803.040293040293,817.1428571428571,798.2051282051282,718.8278388278388,0.340088,0.122437,0.849854,-20.778046,-1.749573,-39.671936,304615.384615,128961098.901099,69462783.882784,81.468307,1,1,1,1,1,55.000000
2025-11-11 16:44:41.111,,,,,,,,,,,,,,,,,,,,,,,,,,,,,,,,,,,,,,,,,,/muse/elements/blink
2025-11-11 16:44:41.656,1.624399486416021,0.7175326808829309,0.584187199613553,1.677680024089698,1.417642666279044,0.6132171202235321,0.3105552418036509,1.513859545605513,1.433799043417675,0.3051659997355938,0.6328998006662029,1.387223642865163,0.7698547680269442,0.09408858743162501,-0.1133365868436426,0.9760636538832996,0.3381360558411903,-0.3074094805856292,-0.5394704110901216,0.5972525799608712,796.1904761904763,826.4102564102565,827.2161172161173,781.6849816849817,714.7985347985348,0.293884,0.042114,1.266418,-24.060364,-14.490051,-66.214600,307032.967033,129167399.267399,69490989.010989,81.268311,1,1,1,1,1,55.000000
2025-11-11 16:44:42.652,1.320270376497652,0.7175326808829309,0.584187199613553,1.36142223846353,1.100690934089422,0.6132171202235321,0.3105552418036509,1.229010745943535,1.385512655205916,0.3051659997355938,0.6328998006662029,1.387223642865163,0.7688795155163659,0.09408858743162501,-0.1133365868436426,0.7309722865592524,0.5107388544383571,-0.3074094805856292,-0.5394704110901216,0.4052768204766483,825.2014652014652,752.2710622710623,786.5201465201466,834.0659340659341,1040.3663003663,0.484131,0.023499,0.853455,-15.043335,-18.736877,-30.011902,302197.802198,129839487.179487,69576410.256410,81.613785,1,1,1,1,1,55.000000
2025-11-11 16:44:43.476,,,,,,,,,,,,,,,,,,,,,,,,,,,,,,,,,,,,,,,,,,/muse/elements/blink
2025-11-11 16:44:43.653,0.9751389574311715,0.7175326808829309,0.584187199613553,0.516465422001959,0.628288295196313,0.6132171202235321,0.3105552418036509,0.6414995724641999,0.8098539840638556,0.3051659997355938,0.6328998006662029,0.3950002851314846,0.7485931397481692,0.09408858743162501,-0.1133365868436426,0.3257682347171675,0.5188047983013495,-0.3074094805856292,-0.5394704110901216,0.1498021248462306,809.4871794871796,814.3223443223443,849.7802197802198,807.0695970695971,716.4102564102565,0.413391,0.162048,0.852966,-18.976135,0.508423,-41.174774,303003.663004,129831428.571429,69476483.516484,82.320457,1,1,1,1,1,55.000000
2025-11-11 16:44:43.733,,,,,,,,,,,,,,,,,,,,,,,,,,,,,,,,,,,,,,,,,,/muse/elements/blink
2025-11-11 16:44:44.075,,,,,,,,,,,,,,,,,,,,,,,,,,,,,,,,,,,,,,,,,,/muse/elements/blink
2025-11-11 16:44:44.459,,,,,,,,,,,,,,,,,,,,,,,,,,,,,,,,,,,,,,,,,,/muse/elements/blink
2025-11-11 16:44:44.661,1.627143028033561,0.7175326808829309,0.584187199613553,0.5628477165216051,1.356351402860386,0.6132171202235321,0.3105552418036509,0.5999060909688586,1.168326293620861,0.3051659997355938,0.6328998006662029,0.3437529988040694,0.6079739374291888,0.09408858743162501,-0.1133365868436426,0.3370830098857233,0.1769112409991532,-0.3074094805856292,-0.5394704110901216,0.1509147780927878,805.0549450549451,779.2673992673992,797.8021978021978,823.992673992674,980.7326007326008,0.506287,0.089722,0.890381,-13.174133,-1.734619,-38.842010,306227.106227,129312454.212454,69237948.717949,82.320457,1,1,1,1,1,55.000000
2025-11-11 16:44:45.506,,,,,,,,,,,,,,,,,,,,,,,,,,,,,,,,,,,,,,,,,,/muse/elements/blink
2025-11-11 16:44:45.653,1.643343333667346,0.7175326808829309,0.584187199613553,1.52535780924173,1.372031934241655,0.6132171202235321,0.3105552418036509,1.390432115253683,1.227883493947326,0.3051659997355938,0.6328998006662029,1.168565241502703,0.5839050461246551,0.09408858743162501,-0.1133365868436426,0.5422839941122429,0.2824319551123472,-0.3074094805856292,-0.5394704110901216,-0.02402584274263281,782.0879120879121,794.1758241758242,792.967032967033,774.0293040293041,661.2087912087912,0.462341,-0.004883,0.913147,-3.955231,-8.471222,-5.973969,308644.688645,129443003.663004,69184761.904762,82.320457,1,1,1,1,1,55.000000
2025-11-11 16:44:46.292,,,,,,,,,,,,,,,,,,,,,,,,,,,,,,,,,,,,,,,,,,/muse/elements/blink
2025-11-11 16:44:46.652,1.622965253358554,0.7175326808829309,0.584187199613553,1.450999486579072,1.358487670352418,0.6132171202235321,0.3105552418036509,1.553692735257219,1.174024995685651,0.3051659997355938,0.6328998006662029,1.208802663606417,0.5476868509987642,0.09408858743162501,-0.1133365868436426,0.5119678456877325,0.36803983980269,-0.3074094805856292,-0.5394704110901216,0.06598104307877366,823.992673992674,819.96336996337,792.1611721611722,815.5311355311355,720.0366300366301,0.384827,0.133301,0.895447,12.875061,0.261688,26.168823,309450.549451,129333406.593407,69046959.706960,82.320457,1,1,1,1,1,55.000000
2025-11-11 16:44:47.599,,,,,,,,,,,,,,,,,,,,,,,,,,,,,,,,,,,,,,,,,,/muse/elements/blink
2025-11-11 16:44:47.653,1.622965253358554,0.7175326808829309,1.514635600735519,1.27027141903902,1.358487670352418,0.6132171202235321,0.9692300713028874,1.203321074545646,1.174024995685651,0.3051659997355938,1.036107393214192,1.210048876368608,0.5476868509987642,0.09408858743162501,0.254210970519578,0.4937713656138937,0.36803983980269,-0.3074094805856292,-0.4018615799419386,0.2160191148459424,836.8864468864469,803.4432234432235,809.0842490842491,823.992673992674,916.6666666666667,0.473328,0.134766,0.953430,2.564545,-5.398254,1.585083,325567.765568,129572747.252747,69057435.897436,82.320457,1,1,1,1,1,55.000000
2025-11-11 16:44:48.025,,,,,,,,,,,,,,,,,,,,,,,,,,,,,,,,,,,,,,,,,,/muse/elements/blink
2025-11-11 16:44:48.429,,,,,,,,,,,,,,,,,,,,,,,,,,,,,,,,,,,,,,,,,,/muse/elements/blink
2025-11-11 16:44:48.653,1.502928348558734,0.7175326808829309,1.472589531307344,1.430313844267264,1.458644077070969,0.6132171202235321,1.016649334824483,1.320106835057063,1.45090483115733,0.3051659997355938,1.016716435470993,1.413665704510232,0.7215932991803575,0.09408858743162501,0.2439089335061507,0.6485783950173495,0.546933480536647,-0.3074094805856292,-0.4375775972090374,0.3847493295732927,758.7179487179487,864.6886446886447,822.3809523809524,784.1025641025641,760.3296703296703,0.383301,0.035461,0.901917,22.153778,10.385284,78.386841,302197.802198,129852380.952381,69059047.619048,83.473511,1,1,1,1,1,55.000000
2025-11-11 16:44:49.237,,,,,,,,,,,,,,,,,,,,,,,,,,,,,,,,,,,,,,,,,,/muse/elements/blink
2025-11-11 16:44:49.653,1.557718935294066,0.7175326808829309,1.472589531307344,1.574228918116944,1.535013582066181,0.6132171202235321,1.016649334824483,1.537601677162285,1.45090483115733,0.3051659997355938,1.016716435470993,1.413665704510232,0.7643572757533581,0.09408858743162501,0.2439089335061507,0.7348512743339716,0.5603127317013241,-0.3074094805856292,-0.4375775972090374,0.4374053923449459,807.8754578754579,851.3919413919414,818.7545787545788,808.2783882783883,662.014652014652,0.328369,0.159424,0.893799,18.176117,5.114136,43.716888,303003.663004,129727472.527473,68903516.483516,82.239273,1,1,1,1,1,55.000000
2025-11-11 16:44:49.855,,,,,,,,,,,,,,,,,,,,,,,,,,,,,,,,,,,,,,,,,,/muse/elements/blink
2025-11-11 16:44:50.260,,,,,,,,,,,,,,,,,,,,,,,,,,,,,,,,,,,,,,,,,,/muse/elements/blink
2025-11-11 16:44:50.645,,,,,,,,,,,,,,,,,,,,,,,,,,,,,,,,,,,,,,,,,,/muse/elements/blink
2025-11-11 16:44:50.653,1.557718935294066,0.7175326808829309,1.472589531307344,1.574228918116944,1.535013582066181,0.6132171202235321,1.016649334824483,1.537601677162285,1.45090483115733,0.3051659997355938,1.016716435470993,1.413665704510232,0.7643572757533581,0.09408858743162501,0.2439089335061507,0.7348512743339716,0.5603127317013241,-0.3074094805856292,-0.4375775972090374,0.4374053923449459,842.5274725274726,736.959706959707,812.3076923076924,822.7838827838829,879.5970695970697,0.552429,-0.005310,0.813538,9.884338,11.476898,5.846863,305421.245421,130041758.241758,69083223.443223,82.638435,1,1,1,1,1,55.000000
2025-11-11 16:44:51.569,,,,,,,,,,,,,,,,,,,,,,,,,,,,,,,,,,,,,,,,,,/muse/elements/blink
2025-11-11 16:44:51.653,1.557718935294066,0.7175326808829309,1.472589531307344,1.574228918116944,1.535013582066181,0.6132171202235321,1.016649334824483,1.537601677162285,1.45090483115733,0.3051659997355938,1.016716435470993,1.413665704510232,0.7643572757533581,0.09408858743162501,0.2439089335061507,0.7348512743339716,0.5603127317013241,-0.3074094805856292,-0.4375775972090374,0.4374053923449459,806.6666666666667,737.3626373626374,837.2893772893773,822.3809523809524,930.7692307692308,0.439758,0.019043,0.778259,25.308990,18.564911,28.150177,307032.967033,129819340.659341,68863223.443223,82.560013,1,2,1,1,2,55.000000
2025-11-11 16:44:52.291,,,,,,,,,,,,,,,,,,,,,,,,,,,,,,,,,,,,,,,,,,/muse/elements/blink
2025-11-11 16:44:52.632,,,,,,,,,,,,,,,,,,,,,,,,,,,,,,,,,,,,,,,,,,/muse/elements/blink
2025-11-11 16:44:52.653,1.595274409632792,0.7175326808829309,1.472589531307344,1.574228918116944,1.340482245322009,0.6132171202235321,1.016649334824483,1.537601677162285,1.154446972322478,0.3051659997355938,1.016716435470993,1.413665704510232,0.8139728549955343,0.09408858743162501,0.2439089335061507,0.7348512743339716,0.5555146570217417,-0.3074094805856292,-0.4375775972090374,0.4374053923449459,812.7106227106227,1052.857142857143,891.6849816849817,747.4358974358975,701.9047619047619,0.176147,0.153564,0.913513,-4.358978,14.617157,-44.105682,309450.549451,129862857.142857,68558608.058608,84.675201,1,1,1,1,1,55.000000
2025-11-11 16:44:53.616,,,,,,,,,,,,,,,,,,,,,,,,,,,,,,,,,,,,,,,,,,/muse/elements/blink
2025-11-11 16:44:53.653,1.644916550972221,0.7175326808829309,1.472589531307344,1.574228918116944,1.416731696320144,0.6132171202235321,1.016649334824483,1.537601677162285,1.034445236818865,0.3051659997355938,1.016716435470993,1.413665704510232,0.8525032714766122,0.09408858743162501,0.2439089335061507,0.7348512743339716,0.5964516895626576,-0.3074094805856292,-0.4375775972090374,0.4374053923449459,1010.549450549451,751.8681318681319,595.934065934066,983.1501831501831,696.2637362637363,0.255737,-0.015686,0.964905,-6.101074,-9.839478,-17.906952,340879.120879,130619560.439560,69382197.802198,85.764328,1,1,1,1,1,55.000000
2025-11-11 16:44:54.299,,,,,,,,,,,,,,,,,,,,,,,,,,,,,,,,,,,,,,,,,,/muse/elements/blink
2025-11-11 16:44:54.653,1.644916550972221,0.7175326808829309,1.472589531307344,1.574228918116944,1.416731696320144,0.6132171202235321,1.016649334824483,1.537601677162285,1.034445236818865,0.3051659997355938,1.016716435470993,1.413665704510232,0.8525032714766122,0.09408858743162501,0.2439089335061507,0.7348512743339716,0.5964516895626576,-0.3074094805856292,-0.4375775972090374,0.4374053923449459,916.2637362637363,1622.197802197802,1610.10989010989,869.1208791208792,780.4761904761905,0.408997,0.015076,0.822144,-15.424652,6.983337,-16.628418,303809.523810,130792014.652015,70368571.428571,85.299995,1,2,1,2,2,55.000000
2025-11-11 16:44:54.723,,,,,,,,,,,,,,,,,,,,,,,,,,,,,,,,,,,,,,,,,,/muse/elements/blink
2025-11-11 16:44:55.423,,,,,,,,,,,,,,,,,,,,,,,,,,,,,,,,,,,,,,,,,,/muse/elements/blink
2025-11-11 16:44:55.653,1.644916550972221,0.7175326808829309,1.472589531307344,1.574228918116944,1.416731696320144,0.6132171202235321,1.016649334824483,1.537601677162285,1.034445236818865,0.3051659997355938,1.016716435470993,1.413665704510232,0.8525032714766122,0.09408858743162501,0.2439089335061507,0.7348512743339716,0.5964516895626576,-0.3074094805856292,-0.4375775972090374,0.4374053923449459,801.8315018315019,1027.472527472527,821.1721611721612,838.0952380952381,524.2124542124542,0.390869,0.187622,0.843750,-29.765167,-4.418793,-56.412506,304615.384615,129834652.014652,69774652.014652,84.867050,1,2,2,2,2,55.000000
2025-11-11 16:44:56.653,1.644916550972221,0.7175326808829309,1.472589531307344,1.574228918116944,1.416731696320144,0.6132171202235321,1.016649334824483,1.537601677162285,1.034445236818865,0.3051659997355938,1.016716435470993,1.413665704510232,0.8525032714766122,0.09408858743162501,0.2439089335061507,0.7348512743339716,0.5964516895626576,-0.3074094805856292,-0.4375775972090374,0.4374053923449459,763.1501831501831,789.7435897435897,844.5421245421246,774.0293040293041,585.4578754578755,0.409973,0.035400,0.906311,-26.146393,-2.145844,-57.504120,300586.080586,129759706.959707,69359633.699634,85.291130,1,2,1,2,2,55.000000
2025-11-11 16:44:56.869,,,,,,,,,,,,,,,,,,,,,,,,,,,,,,,,,,,,,,,,,,/muse/elements/blink
2025-11-11 16:44:57.653,1.644916550972221,0.7175326808829309,1.472589531307344,1.574228918116944,1.416731696320144,0.6132171202235321,1.016649334824483,1.537601677162285,1.034445236818865,0.3051659997355938,1.016716435470993,1.413665704510232,0.8525032714766122,0.09408858743162501,0.2439089335061507,0.7348512743339716,0.5964516895626576,-0.3074094805856292,-0.4375775972090374,0.4374053923449459,836.0805860805862,720.0366300366301,659.1941391941392,813.1135531135532,783.6996336996338,0.397705,0.026917,0.806458,-19.342499,12.396545,-13.966675,302197.802198,130020000.000000,69314505.494505,87.562271,1,2,1,1,2,55.000000
2025-11-11 16:44:58.570,,,,,,,,,,,,,,,,,,,,,,,,,,,,,,,,,,,,,,,,,,/muse/elements/blink
2025-11-11 16:44:58.653,1.310574884905739,0.7175326808829309,1.472589531307344,1.484621934333954,1.226838252410155,0.6132171202235321,1.016649334824483,1.324103319559464,1.087048241323488,0.3051659997355938,1.016716435470993,1.121622544931215,0.6196250281584753,0.09408858743162501,0.2439089335061507,0.8011204073071598,0.5045654281933833,-0.3074094805856292,-0.4375775972090374,0.2514184186830425,809.8901098901099,765.1648351648352,743.8095238095239,814.3223443223443,641.4652014652015,0.445251,0.075806,0.864807,-18.863983,4.007568,-37.653198,304615.384615,130555091.575092,69632820.512821,86.620735,1,1,1,1,1,55.000000
2025-11-11 16:44:59.511,,,,,,,,,,,,,,,,,,,,,,,,,,,,,,,,,,,,,,,,,,/muse/elements/blink
2025-11-11 16:44:59.653,1.469978884771882,0.7175326808829309,1.472589531307344,1.548917679503506,1.452357985970104,0.6132171202235321,1.016649334824483,1.416997845592135,1.467477755633323,0.3051659997355938,1.016716435470993,1.275239075688355,0.596885756376353,0.09408858743162501,0.2439089335061507,0.5325360467528674,0.4910469952849424,-0.3074094805856292,-0.4375775972090374,0.3370150255083549,784.9084249084249,798.2051282051282,705.1282051282052,807.8754578754579,1117.728937728938,0.343506,0.038391,0.928711,2.743988,4.740295,-11.110535,313479.853480,130890329.670330,69803663.003663,84.590591,1,1,1,1,1,55.000000
2025-11-11 16:44:59.809,,,,,,,,,,,,,,,,,,,,,,,,,,,,,,,,,,,,,,,,,,/muse/elements/blink
2025-11-11 16:45:00.131,,,,,,,,,,,,,,,,,,,,,,,,,,,,,,,,,,,,,,,,,,/muse/elements/blink
2025-11-11 16:45:00.538,,,,,,,,,,,,,,,,,,,,,,,,,,,,,,,,,,,,,,,,,,/muse/elements/blink
2025-11-11 16:45:00.659,1.49830664737893,0.7175326808829309,1.472589531307344,1.671545844676325,1.584074036401362,0.6132171202235321,1.016649334824483,1.644012187184367,1.451854991877141,0.3051659997355938,1.016716435470993,1.441771748139727,0.6840396657291299,0.09408858743162501,0.2439089335061507,0.6876181033863378,0.4451565199216856,-0.3074094805856292,-0.4375775972090374,0.3913688066862131,792.1611721611722,875.1648351648352,605.6043956043957,784.5054945054945,851.3919413919414,0.322693,0.068054,0.901611,28.695984,-11.521759,60.764008,326373.626374,130501904.761905,69570769.230769,84.198280,1,1,1,1,1,55.000000
2025-11-11 16:45:01.244,,,,,,,,,,,,,,,,,,,,,,,,,,,,,,,,,,,,,,,,,,/muse/elements/blink
2025-11-11 16:45:01.661,1.49830664737893,0.7175326808829309,1.472589531307344,1.671545844676325,1.584074036401362,0.6132171202235321,1.016649334824483,1.644012187184367,1.451854991877141,0.3051659997355938,1.016716435470993,1.441771748139727,0.6840396657291299,0.09408858743162501,0.2439089335061507,0.6876181033863378,0.4451565199216856,-0.3074094805856292,-0.4375775972090374,0.3913688066862131,826.007326007326,815.934065934066,583.040293040293,822.7838827838829,632.1978021978022,0.423462,0.214966,0.868408,19.469604,0.927124,54.849854,340073.260073,130523663.003663,69645714.285714,84.198280,1,1,1,1,1,55.000000
2025-11-11 16:45:02.117,,,,,,,,,,,,,,,,,,,,,,,,,,,,,,,,,,,,,,,,,,/muse/elements/blink
2025-11-11 16:45:02.653,1.49830664737893,0.7175326808829309,1.472589531307344,1.671545844676325,1.584074036401362,0.6132171202235321,1.016649334824483,1.644012187184367,1.451854991877141,0.3051659997355938,1.016716435470993,1.441771748139727,0.6840396657291299,0.09408858743162501,0.2439089335061507,0.6876181033863378,0.4451565199216856,-0.3074094805856292,-0.4375775972090374,0.3913688066862131,800.2197802197802,780.8791208791209,693.8461538461538,812.3076923076924,878.3882783882784,0.444275,0.155273,0.852478,19.192963,-7.551575,24.262238,302197.802198,130793626.373626,69664249.084249,85.297035,1,2,1,1,2,55.000000
2025-11-11 16:45:03.668,1.49830664737893,0.7175326808829309,1.472589531307344,1.671545844676325,1.584074036401362,0.6132171202235321,1.016649334824483,1.644012187184367,1.451854991877141,0.3051659997355938,1.016716435470993,1.441771748139727,0.6840396657291299,0.09408858743162501,0.2439089335061507,0.6876181033863378,0.4451565199216856,-0.3074094805856292,-0.4375775972090374,0.3913688066862131,799.4139194139194,859.8534798534798,723.2600732600732,811.5018315018315,655.5677655677656,0.323486,0.083313,0.958618,16.852722,-11.357269,69.795990,303809.523810,131127252.747253,69736776.556777,84.457535,1,2,1,1,2,55.000000
2025-11-11 16:45:04.653,1.004468605429638,0.7175326808829309,1.472589531307344,1.082625452067233,0.502288851661516,0.6132171202235321,1.016649334824483,0.7714460523086185,0.6860741992303194,0.3051659997355938,1.016716435470993,0.7747472520593772,0.6153005737567798,0.09408858743162501,0.2439089335061507,0.9345310310073532,0.3611455528924741,-0.3074094805856292,-0.4375775972090374,0.6318094932840308,799.0109890109891,890.0732600732601,774.4322344322345,811.9047619047619,554.4322344322344,0.308960,0.204956,0.944580,15.521851,1.577606,46.453400,306227.106227,131509230.769231,69841538.461538,84.439171,1,1,1,1,1,55.000000
2025-11-11 16:45:05.653,1.132023967781777,0.7175326808829309,1.472589531307344,1.20701758895787,0.5903997750391862,0.6132171202235321,1.016649334824483,0.939425583982983,0.7408214993844697,0.3051659997355938,1.016716435470993,0.5777807375933192,0.6531934852149645,0.09408858743162501,0.2439089335061507,0.859041291089742,0.4042757549363287,-0.3074094805856292,-0.4375775972090374,0.3592075112013489,704.3223443223443,759.5238095238095,766.7765567765568,745.8241758241759,1202.344322344322,0.456848,0.117065,1.115845,-29.152069,-2.743988,-25.451050,311868.131868,131589010.989011,69756923.076923,84.439171,1,1,1,1,1,55.000000
2025-11-11 16:45:05.784,,,,,,,,,,,,,,,,,,,,,,,,,,,,,,,,,,,,,,,,,,/muse/elements/blink
2025-11-11 16:45:06.384,,,,,,,,,,,,,,,,,,,,,,,,,,,,,,,,,,,,,,,,,,/muse/elements/blink
2025-11-11 16:45:06.653,1.180782909565893,0.7175326808829309,1.472589531307344,1.20701758895787,0.4094983492587725,0.6132171202235321,1.016649334824483,0.939425583982983,0.6888070619568469,0.3051659997355938,1.016716435470993,0.5777807375933192,0.6167925699582305,0.09408858743162501,0.2439089335061507,0.859041291089742,0.4884199183611427,-0.3074094805856292,-0.4375775972090374,0.3592075112013489,836.4835164835165,814.7252747252747,1618.168498168498,841.7216117216118,683.7728937728938,0.423035,0.030396,0.909302,-0.613098,-12.822723,3.753357,315091.575092,131518901.098901,69748864.468864,85.541115,1,1,1,1,1,55.000000
2025-11-11 16:45:07.656,1.180782909565893,0.7175326808829309,1.472589531307344,1.20701758895787,0.4094983492587725,0.6132171202235321,1.016649334824483,0.939425583982983,0.6888070619568469,0.3051659997355938,1.016716435470993,0.5777807375933192,0.6167925699582305,0.09408858743162501,0.2439089335061507,0.859041291089742,0.4884199183611427,-0.3074094805856292,-0.4375775972090374,0.3592075112013489,814.7252747252747,812.7106227106227,815.5311355311355,818.7545787545788,684.1758241758242,0.378235,0.220764,0.853271,23.619232,4.919739,52.225494,323956.043956,131599487.179487,69665860.805861,106.558594,1,1,1,1,1,55.000000
2025-11-11 16:45:08.648,,,,,,,,,,,,,,,,,,,,,,,,,,,,,,,,,,,,,,,,,,/muse/elements/blink
2025-11-11 16:45:08.659,1.58014861281852,0.7175326808829309,1.472589531307344,1.164988766432944,1.130091012232633,0.6132171202235321,1.016649334824483,0.9651906071885082,1.109555996460128,0.3051659997355938,1.016716435470993,1.203233832452551,0.5147490437163845,0.09408858743162501,0.2439089335061507,1.091693146095039,0.2509002984319882,-0.3074094805856292,-0.4375775972090374,0.5610231026537579,818.3516483516484,768.7912087912088,761.1355311355312,786.9230769230769,643.4798534798535,0.453125,0.088135,0.786499,25.301514,-1.801910,31.522217,323956.043956,131701831.501832,69632820.512821,107.622078,1,1,1,1,1,55.000000
2025-11-11 16:45:09.653,1.590517145709389,0.7175326808829309,1.472589531307344,1.164988766432944,1.00791416131851,0.6132171202235321,1.016649334824483,0.9651906071885082,0.9820508771929137,0.3051659997355938,1.016716435470993,1.203233832452551,0.5880891222995915,0.09408858743162501,0.2439089335061507,1.091693146095039,0.2607088037070289,-0.3074094805856292,-0.4375775972090374,0.5610231026537579,779.2673992673992,828.8278388278388,773.6263736263736,800.2197802197802,675.3113553113553,0.263977,0.074585,0.936340,24.374390,6.579590,47.627258,308644.688645,132073333.333333,69607838.827839,107.622078,1,1,1,1,1,55.000000
2025-11-11 16:45:10.654,1.590517145709389,0.7175326808829309,1.472589531307344,1.164988766432944,1.00791416131851,0.6132171202235321,1.016649334824483,0.9651906071885082,0.9820508771929137,0.3051659997355938,1.016716435470993,1.203233832452551,0.5880891222995915,0.09408858743162501,0.2439089335061507,1.091693146095039,0.2607088037070289,-0.3074094805856292,-0.4375775972090374,0.5610231026537579,815.934065934066,812.3076923076924,751.4652014652015,811.5018315018315,770.8058608058608,0.274963,0.229492,0.875488,12.523651,0.620575,42.004700,306227.106227,131804175.824176,69378168.498168,104.573509,1,1,1,1,1,55.000000
2025-11-11 16:45:11.654,1.124913189961152,0.7175326808829309,1.472589531307344,1.178401219962405,1.06631792684283,0.6132171202235321,1.016649334824483,1.147543047710685,0.968470103212331,0.3051659997355938,1.016716435470993,1.319245589464027,0.4317863734127947,0.09408858743162501,0.2439089335061507,0.8384665295532784,0.3667226599422349,-0.3074094805856292,-0.4375775972090374,0.3572635395120458,803.8461538461539,685.7875457875458,725.2747252747253,793.7728937728938,580.2197802197802,0.459473,0.154785,0.771606,-3.805695,8.545990,-3.596344,303003.663004,131775970.695971,69284688.644689,95.828819,1,1,1,1,1,55.000000
2025-11-11 16:45:12.653,1.347391809233407,0.7175326808829309,1.472589531307344,1.290068132081916,0.9646358890054499,0.6132171202235321,1.016649334824483,0.9000214480233782,1.365767064903912,0.3051659997355938,1.016716435470993,1.12331780834069,0.596006523792309,0.09408858743162501,0.2439089335061507,0.9193555095539515,0.4442111827464258,-0.3074094805856292,-0.4375775972090374,0.4497924222914754,794.981684981685,833.6630036630037,755.8974358974359,804.6520146520147,622.5274725274726,0.336792,0.039062,0.901855,-14.101257,-2.385101,-34.296112,301391.941392,131573699.633700,69046153.846154,90.417046,1,1,1,1,1,55.000000
2025-11-11 16:45:13.617,,,,,,,,,,,,,,,,,,,,,,,,,,,,,,,,,,,,,,,,,,/muse/elements/blink
2025-11-11 16:45:13.654,1.464573789715024,0.7175326808829309,1.472589531307344,1.383161215352079,1.085566016055882,0.6132171202235321,1.016649334824483,0.952820503639439,1.343428322680687,0.3051659997355938,1.016716435470993,1.081821318936451,0.6329389565479802,0.09408858743162501,0.2439089335061507,0.8390278110270549,0.4558788072312037,-0.3074094805856292,-0.4375775972090374,0.4548824752579686,833.6630036630037,932.3809523809524,896.9230769230769,846.1538461538462,696.2637362637363,0.115051,0.041687,1.204102,-7.596436,32.613831,-5.697327,311868.131868,131517289.377289,68811648.351648,87.645447,1,1,1,1,1,55.000000
2025-11-11 16:45:14.654,1.464573789715024,0.7175326808829309,1.472589531307344,1.383161215352079,1.085566016055882,0.6132171202235321,1.016649334824483,0.952820503639439,1.343428322680687,0.3051659997355938,1.016716435470993,1.081821318936451,0.6329389565479802,0.09408858743162501,0.2439089335061507,0.8390278110270549,0.4558788072312037,-0.3074094805856292,-0.4375775972090374,0.4548824752579686,799.0109890109891,940.0366300366301,904.5787545787546,835.2747252747253,729.3040293040293,-0.296509,0.148804,0.945068,12.972260,-23.604279,-48.270264,422271.062271,132311868.131868,68619853.479853,87.540222,1,1,1,1,1,55.000000
2025-11-11 16:45:15.360,,,,,,,,,,,,,,,,,,,,,,,,,,,,,,,,,,,,,,,,,,/muse/elements/blink
2025-11-11 16:45:15.654,1.464573789715024,0.7175326808829309,1.472589531307344,0.7100764531333837,1.085566016055882,0.6132171202235321,1.016649334824483,1.002359385746087,1.343428322680687,0.3051659997355938,1.016716435470993,1.122878461917207,0.6329389565479802,0.09408858743162501,0.2439089335061507,0.8462251078302552,0.4558788072312037,-0.3074094805856292,-0.4375775972090374,0.4575884821947881,812.7106227106227,823.5897435897436,830.8424908424909,836.0805860805862,689.4139194139194,0.091614,-0.019287,0.999756,-8.059998,4.216919,-50.909576,303809.523810,132644688.644689,68552967.032967,84.474602,1,1,1,1,1,55.000000
2025-11-11 16:45:15.956,,,,,,,,,,,,,,,,,,,,,,,,,,,,,,,,,,,,,,,,,,/muse/elements/blink
2025-11-11 16:45:16.654,1.464573789715024,0.7175326808829309,1.472589531307344,0.7100764531333837,1.085566016055882,0.6132171202235321,1.016649334824483,1.002359385746087,1.343428322680687,0.3051659997355938,1.016716435470993,1.122878461917207,0.6329389565479802,0.09408858743162501,0.2439089335061507,0.8462251078302552,0.4558788072312037,-0.3074094805856292,-0.4375775972090374,0.4575884821947881,830.8424908424909,815.5311355311355,804.2490842490843,829.2307692307693,707.1428571428571,0.120850,-0.029968,0.884583,-14.273224,-11.200256,-17.690125,307032.967033,131773553.113553,67996117.216117,85.960823,1,1,1,1,1,55.000000
2025-11-11 16:45:17.171,,,,,,,,,,,,,,,,,,,,,,,,,,,,,,,,,,,,,,,,,,/muse/elements/blink
2025-11-11 16:45:17.597,,,,,,,,,,,,,,,,,,,,,,,,,,,,,,,,,,,,,,,,,,/muse/elements/blink
2025-11-11 16:45:17.654,1.464573789715024,0.7175326808829309,1.472589531307344,0.7100764531333837,1.085566016055882,0.6132171202235321,1.016649334824483,1.002359385746087,1.343428322680687,0.3051659997355938,1.016716435470993,1.122878461917207,0.6329389565479802,0.09408858743162501,0.2439089335061507,0.8462251078302552,0.4558788072312037,-0.3074094805856292,-0.4375775972090374,0.4575884821947881,823.992673992674,811.5018315018315,837.2893772893773,825.2014652014652,624.5421245421246,0.029968,0.152222,0.925842,1.256104,0.254211,-12.381592,317509.157509,130849230.769231,67602857.142857,86.564331,1,1,1,1,1,55.000000
2025-11-11 16:45:18.491,,,,,,,,,,,,,,,,,,,,,,,,,,,,,,,,,,,,,,,,,,/muse/elements/blink
2025-11-11 16:45:18.654,1.464573789715024,0.7175326808829309,1.472589531307344,0.7100764531333837,1.085566016055882,0.6132171202235321,1.016649334824483,1.002359385746087,1.343428322680687,0.3051659997355938,1.016716435470993,1.122878461917207,0.6329389565479802,0.09408858743162501,0.2439089335061507,0.8462251078302552,0.4558788072312037,-0.3074094805856292,-0.4375775972090374,0.4575884821947881,860.2564102564103,819.1575091575091,826.8131868131868,857.4358974358975,611.6483516483516,0.079773,0.065369,0.981873,-3.745880,7.529144,1.854248,320732.600733,131440732.600733,67780952.380952,86.545837,1,2,1,1,2,55.000000
2025-11-11 16:45:19.654,1.464573789715024,0.7175326808829309,1.472589531307344,0.7100764531333837,1.085566016055882,0.6132171202235321,1.016649334824483,1.002359385746087,1.343428322680687,0.3051659997355938,1.016716435470993,1.122878461917207,0.6329389565479802,0.09408858743162501,0.2439089335061507,0.8462251078302552,0.4558788072312037,-0.3074094805856292,-0.4375775972090374,0.4575884821947881,791.3553113553114,762.3443223443223,787.7289377289378,790.952380952381,903.7728937728938,0.218567,0.049011,0.859741,5.226288,22.153778,58.423767,322344.322344,131879120.879121,67853479.853480,86.221252,1,2,1,1,2,55.000000
2025-11-11 16:45:20.048,,,,,,,,,,,,,,,,,,,,,,,,,,,,,,,,,,,,,,,,,,/muse/elements/blink
2025-11-11 16:45:20.656,1.464573789715024,0.7175326808829309,1.472589531307344,0.7100764531333837,1.085566016055882,0.6132171202235321,1.016649334824483,1.002359385746087,1.343428322680687,0.3051659997355938,1.016716435470993,1.122878461917207,0.6329389565479802,0.09408858743162501,0.2439089335061507,0.8462251078302552,0.4558788072312037,-0.3074094805856292,-0.4375775972090374,0.4575884821947881,829.2307692307693,838.901098901099,715.6043956043957,843.3333333333334,761.941391941392,0.161133,0.198608,0.927124,-0.067291,12.015228,49.406738,335238.095238,132218388.278388,68040439.560440,85.945511,1,2,1,1,2,55.000000
2025-11-11 16:45:21.655,1.464573789715024,0.7175326808829309,1.472589531307344,0.7100764531333837,1.085566016055882,0.6132171202235321,1.016649334824483,1.002359385746087,1.343428322680687,0.3051659997355938,1.016716435470993,1.122878461917207,0.6329389565479802,0.09408858743162501,0.2439089335061507,0.8462251078302552,0.4558788072312037,-0.3074094805856292,-0.4375775972090374,0.4575884821947881,786.9230769230769,789.3406593406594,782.893772893773,790.1465201465202,595.1282051282052,0.239258,0.046631,1.078247,5.383301,4.732819,16.852722,307032.967033,131577728.937729,67713260.073260,77.516823,1,2,1,1,2,55.000000
2025-11-11 16:45:21.730,,,,,,,,,,,,,,,,,,,,,,,,,,,,,,,,,,,,,,,,,,/muse/elements/blink
2025-11-11 16:45:21.963,,,,,,,,,,,,,,,,,,,,,,,,,,,,,,,,,,,,,,,,,,/muse/elements/blink
2025-11-11 16:45:22.655,1.660362950667915,0.7175326808829309,1.472589531307344,1.655064189574159,1.394337985462425,0.6132171202235321,1.016649334824483,1.764913025190091,1.29117609098402,0.3051659997355938,1.016716435470993,1.466584011601328,0.892294205705095,0.09408858743162501,0.2439089335061507,1.232589855385896,0.5370360411162002,-0.3074094805856292,-0.4375775972090374,0.3564336233885195,802.2344322344322,784.5054945054945,821.978021978022,793.7728937728938,899.3406593406594,0.244141,0.016357,0.909119,9.196472,14.602203,53.018036,306227.106227,130343956.043956,67292600.732601,77.516823,1,1,1,1,1,55.000000
2025-11-11 16:45:23.267,,,,,,,,,,,,,,,,,,,,,,,,,,,,,,,,,,,,,,,,,,/muse/elements/blink
2025-11-11 16:45:23.661,1.719584851958791,0.7175326808829309,1.472589531307344,1.6114931103915,1.409026456344855,0.6132171202235321,1.016649334824483,1.588780176133244,1.447173481236582,0.3051659997355938,1.016716435470993,1.430999388338153,0.9413374086233376,0.09408858743162501,0.2439089335061507,1.065992682940623,0.6568488810295104,-0.3074094805856292,-0.4375775972090374,0.4831132248461503,825.6043956043957,797.8021978021978,828.021978021978,832.4542124542124,807.0695970695971,0.171509,0.220520,0.960449,1.360779,-3.192596,13.719940,304615.384615,130011135.531136,67267619.047619,77.516823,1,1,1,1,1,55.000000
2025-11-11 16:45:24.654,1.412642377065606,0.7175326808829309,1.472589531307344,1.416108562625812,1.273771949086067,0.6132171202235321,1.016649334824483,1.191853311276123,1.489003608739084,0.3051659997355938,1.016716435470993,1.159145858090789,0.9441494733289901,0.09408858743162501,0.2439089335061507,0.9050314056128443,0.781870601324104,-0.3074094805856292,-0.4375775972090374,0.6732000364586451,809.8901098901099,794.1758241758242,767.985347985348,833.6630036630037,783.6996336996338,0.434998,0.151062,0.882812,-8.291779,-3.229980,-31.634369,302197.802198,129801611.721612,67461025.641026,88.818390,1,1,1,1,1,55.000000
2025-11-11 16:45:25.018,,,,,,,,,,,,,,,,,,,,,,,,,,,,,,,,,,,,,,,,,,/muse/elements/blink
2025-11-11 16:45:25.295,,,,,,,,,,,,,,,,,,,,,,,,,,,,,,,,,,,,,,,,,,/muse/elements/blink
2025-11-11 16:45:25.654,1.124638858465181,1.353211228892479,1.472589531307344,1.231758621949899,1.117579688573383,1.087010285920899,1.016649334824483,1.170661902475395,1.102220475244443,0.7071645637562944,1.016716435470993,0.7610210724696104,0.8213990476120332,0.5407369669321375,0.2439089335061507,0.7403429075897696,0.6173494339234279,-0.2650609060993659,-0.4375775972090374,0.5409803632295396,788.9377289377289,788.5347985347986,739.3772893772893,822.3809523809524,736.959706959707,0.259460,0.057434,0.904968,-20.366821,2.422485,-33.585815,301391.941392,130061098.901099,67650402.930403,103.563644,1,1,1,1,1,55.000000
2025-11-11 16:45:26.427,,,,,,,,,,,,,,,,,,,,,,,,,,,,,,,,,,,,,,,,,,/muse/elements/blink
2025-11-11 16:45:26.654,1.273154493159466,1.353211228892479,1.472589531307344,1.231758621949899,1.086108891504962,1.087010285920899,1.016649334824483,1.170661902475395,0.9359458040331687,0.7071645637562944,1.016716435470993,0.7610210724696104,0.4260446418469074,0.5407369669321375,0.2439089335061507,0.7403429075897696,0.0250861262042575,-0.2650609060993659,-0.4375775972090374,0.5409803632295396,836.0805860805862,763.1501831501831,774.4322344322345,813.1135531135532,628.974358974359,0.461121,0.085632,1.099426,-19.656525,-8.949738,-21.136932,304615.384615,130057069.597070,67703589.743590,98.637093,1,1,1,1,1,55.000000
2025-11-11 16:45:27.215,,,,,,,,,,,,,,,,,,,,,,,,,,,,,,,,,,,,,,,,,,/muse/elements/blink
2025-11-11 16:45:27.657,1.473258888063125,1.353211228892479,1.472589531307344,1.231758621949899,1.225424133786312,1.087010285920899,1.016649334824483,1.170661902475395,1.042889690234104,0.7071645637562944,1.016716435470993,0.7610210724696104,0.503178158373936,0.5407369669321375,0.2439089335061507,0.7403429075897696,0.08681589219268808,-0.2650609060993659,-0.4375775972090374,0.5409803632295396,821.978021978022,783.2967032967033,795.7875457875458,790.952380952381,654.3589743589744,0.423889,0.192505,0.856812,-34.079285,-15.962982,-83.299103,303003.663004,130090915.750916,67784981.684982,98.637093,1,1,1,1,1,55.000000
2025-11-11 16:45:27.812,,,,,,,,,,,,,,,,,,,,,,,,,,,,,,,,,,,,,,,,,,/muse/elements/blink
2025-11-11 16:45:28.657,1.49007170491724,1.353211228892479,1.472589531307344,1.801984861658369,1.293880286279718,1.087010285920899,1.016649334824483,1.627814419106345,1.168679936561613,0.7071645637562944,1.016716435470993,1.34353649101971,0.9008701826839326,0.5407369669321375,0.2439089335061507,0.7875732316123766,0.2641982774220119,-0.2650609060993659,-0.4375775972090374,0.3852402571735974,810.6959706959707,774.0293040293041,786.9230769230769,810.6959706959707,693.040293040293,0.363281,0.021240,0.898926,-13.458252,9.331055,-42.004700,308644.688645,130325421.245421,67875238.095238,98.637093,1,1,1,1,1,55.000000
2025-11-11 16:45:28.754,,,,,,,,,,,,,,,,,,,,,,,,,,,,,,,,,,,,,,,,,,/muse/elements/blink
2025-11-11 16:45:29.659,1.431985349166282,1.353211228892479,1.472589531307344,1.784017871713095,1.260197331182106,1.087010285920899,1.016649334824483,1.660051524386597,1.028497659291388,0.7071645637562944,1.016716435470993,1.331513296983395,0.7556260889241061,0.5407369669321375,0.2439089335061507,0.8110851220950288,0.2554831563637438,-0.2650609060993659,-0.4375775972090374,0.390541507416524,844.5421245421246,821.5750915750916,812.3076923076924,849.7802197802198,558.0586080586081,0.321594,-0.002197,0.897583,4.344025,9.099274,-1.338348,312673.992674,130548644.688645,67937289.377289,98.637093,1,1,1,1,1,55.000000
2025-11-11 16:45:29.799,,,,,,,,,,,,,,,,,,,,,,,,,,,,,,,,,,,,,,,,,,/muse/elements/blink
2025-11-11 16:45:30.654,1.416523800426255,1.353211228892479,1.472589531307344,1.784017871713095,1.23092111454337,1.087010285920899,1.016649334824483,1.660051524386597,0.9328064674711929,0.7071645637562944,1.016716435470993,1.331513296983395,0.6141375864600429,0.5407369669321375,0.2439089335061507,0.8110851220950288,0.2322744318413852,-0.2650609060993659,-0.4375775972090374,0.390541507416524,811.9047619047619,839.7069597069598,804.2490842490843,826.4102564102565,734.1391941391942,0.331055,0.172852,0.874756,1.076660,1.510315,10.893707,305421.245421,130821831.501832,67967912.087912,98.637093,1,1,1,1,1,55.000000
2025-11-11 16:45:31.124,,,,,,,,,,,,,,,,,,,,,,,,,,,,,,,,,,,,,,,,,,/muse/elements/blink
2025-11-11 16:45:31.654,1.699122030411225,1.353211228892479,1.472589531307344,1.661408603756341,1.626484502754671,1.087010285920899,1.016649334824483,1.598567460682203,1.288188074561645,0.7071645637562944,1.016716435470993,1.41701074772942,0.8647398810869854,0.5407369669321375,0.2439089335061507,1.160481269099072,0.4703330044941385,-0.2650609060993659,-0.4375775972090374,0.5612530339722613,774.0293040293041,782.893772893773,794.1758241758242,792.967032967033,782.4908424908425,0.444946,0.124695,1.013794,19.596710,7.902985,23.851013,312673.992674,131155457.875458,68070256.410256,91.079842,1,1,1,1,1,55.000000
2025-11-11 16:45:32.083,,,,,,,,,,,,,,,,,,,,,,,,,,,,,,,,,,,,,,,,,,/muse/elements/blink
2025-11-11 16:45:32.654,1.620455333047635,1.353211228892479,1.472589531307344,1.661408603756341,1.633177936336492,1.087010285920899,1.016649334824483,1.598567460682203,1.422750929195999,0.7071645637562944,1.016716435470993,1.41701074772942,0.6769054833844017,0.5407369669321375,0.2439089335061507,1.160481269099072,0.4407601421113839,-0.2650609060993659,-0.4375775972090374,0.5612530339722613,806.2637362637363,807.4725274725275,739.3772893772893,792.967032967033,547.1794871794872,0.364258,0.065125,0.818665,30.617523,-8.329163,78.618622,315897.435897,131203809.523810,68064615.384615,84.038940,1,1,1,1,1,55.000000
2025-11-11 16:45:33.430,,,,,,,,,,,,,,,,,,,,,,,,,,,,,,,,,,,,,,,,,,/muse/elements/blink
2025-11-11 16:45:33.655,1.718658849961576,1.353211228892479,1.472589531307344,1.661408603756341,1.722916762470488,1.087010285920899,1.016649334824483,1.598567460682203,1.449586860105287,0.7071645637562944,1.016716435470993,1.41701074772942,0.6202731687320141,0.5407369669321375,0.2439089335061507,1.160481269099072,0.3722565255678297,-0.2650609060993659,-0.4375775972090374,0.5612530339722613,782.4908424908425,774.8351648351648,782.0879120879121,790.5494505494506,678.9377289377289,0.423279,0.193481,0.870850,16.987305,15.140533,51.238556,304615.384615,130678388.278388,67847838.827839,81.773155,1,1,1,1,1,55.000000
2025-11-11 16:45:33.814,,,,,,,,,,,,,,,,,,,,,,,,,,,,,,,,,,,,,,,,,,/muse/elements/blink
2025-11-11 16:45:34.347,,,,,,,,,,,,,,,,,,,,,,,,,,,,,,,,,,,,,,,,,,/muse/elements/blink
2025-11-11 16:45:34.656,2.024687425253007,1.353211228892479,1.472589531307344,1.955218477814009,1.625264082075746,1.087010285920899,1.016649334824483,1.541558394898231,1.555571001937754,0.7071645637562944,1.016716435470993,1.75361688255588,0.6482863709893292,0.5407369669321375,0.2439089335061507,1.565576465840464,0.3770356287804606,-0.2650609060993659,-0.4375775972090374,0.8779828871739858,835.2747252747253,788.1318681318681,773.6263736263736,816.3369963369963,666.0439560439561,0.316406,0.179932,0.860352,15.305023,21.944427,23.716431,305421.245421,130554285.714286,67760000.000000,80.913422,1,1,1,1,1,55.000000
2025-11-11 16:45:35.050,,,,,,,,,,,,,,,,,,,,,,,,,,,,,,,,,,,,,,,,,,/muse/elements/blink
2025-11-11 16:45:35.658,1.647167162221501,1.353211228892479,1.472589531307344,1.625430040368626,1.280591835394242,1.087010285920899,1.016649334824483,1.378789549428144,1.280215885659409,0.7071645637562944,1.016716435470993,1.451797802525115,0.6367011063867863,0.5407369669321375,0.2439089335061507,1.215993667087581,0.3285986108252431,-0.2650609060993659,-0.4375775972090374,0.7188047044787131,814.7252747252747,800.6227106227107,742.6007326007326,813.919413919414,631.7948717948718,0.321777,0.056091,0.902710,14.041443,21.779938,12.807770,303003.663004,130588937.728938,67791428.571429,82.251534,1,1,1,1,1,55.000000
2025-11-11 16:45:36.581,,,,,,,,,,,,,,,,,,,,,,,,,,,,,,,,,,,,,,,,,,/muse/elements/blink
2025-11-11 16:45:36.654,1.342700495655782,1.353211228892479,1.472589531307344,1.379351065615848,0.9367150615811055,1.087010285920899,1.016649334824483,1.229177237597386,1.124288576834558,0.7071645637562944,1.016716435470993,1.243260975150067,0.6510214106599198,0.5407369669321375,0.2439089335061507,0.7820338433876366,0.2842337472220074,-0.2650609060993659,-0.4375775972090374,0.3126264657140994,832.8571428571429,751.0622710622711,768.7912087912088,812.7106227106227,631.7948717948718,0.487915,0.099060,0.976807,-12.149811,1.951447,-1.173859,303003.663004,130775897.435897,67855091.575092,83.127632,1,1,1,1,1,55.000000
2025-11-11 16:45:37.658,1.219450652057839,1.353211228892479,1.472589531307344,0.9724470531204314,0.917495393375654,1.087010285920899,1.016649334824483,1.177956182480021,0.7363189753753514,0.7071645637562944,1.016716435470993,0.8256495644614452,0.6602708164219565,0.5407369669321375,0.2439089335061507,0.8072382319687728,0.2449587281277343,-0.2650609060993659,-0.4375775972090374,0.2416654485668266,800.6227106227107,788.1318681318681,815.934065934066,777.6556776556777,535.8974358974359,0.335205,0.130188,0.840881,-25.062256,-12.321777,-72.614746,312673.992674,130530915.750916,67798681.318681,83.563454,1,1,1,1,1,55.000000
2025-11-11 16:45:38.657,1.477332802930586,1.353211228892479,1.472589531307344,1.58369532108494,1.101743662867555,1.087010285920899,1.016649334824483,1.164698107737813,1.263866512254278,0.7071645637562944,1.016716435470993,0.9196443864216226,1.050299559907359,0.5407369669321375,0.2439089335061507,0.484943351641727,0.7625365147665569,-0.2650609060993659,-0.4375775972090374,0.2456585656499714,786.1172161172161,778.0586080586081,779.6703296703297,814.7252747252747,588.6813186813187,0.374084,0.048157,0.889526,-24.905243,5.914154,-58.737793,315091.575092,130242417.582418,67704395.604396,83.534691,1,1,1,1,1,55.000000
2025-11-11 16:45:39.030,,,,,,,,,,,,,,,,,,,,,,,,,,,,,,,,,,,,,,,,,,/muse/elements/blink
2025-11-11 16:45:39.654,1.574901826386031,1.353211228892479,1.472589531307344,1.712603634959278,1.290305196465461,1.087010285920899,1.016649334824483,1.45013277726399,1.286154759821242,0.7071645637562944,1.016716435470993,1.238697020198178,0.8916170706559221,0.5407369669321375,0.2439089335061507,0.438249159130675,0.584161147565307,-0.2650609060993659,-0.4375775972090374,0.3717161481761532,795.7875457875458,766.3736263736264,780.0732600732601,799.0109890109891,971.4652014652015,0.354187,0.033020,0.963074,-20.606079,-11.895599,-32.868042,302197.802198,130306886.446886,67761611.721612,83.534691,1,1,1,1,1,55.000000
2025-11-11 16:45:40.659,1.200988903616721,1.353211228892479,1.472589531307344,1.277964637289089,1.123485421034407,1.087010285920899,1.016649334824483,1.212433384185989,1.259139887057198,0.7071645637562944,1.016716435470993,1.233173865486918,0.9093669086950241,0.5407369669321375,0.2439089335061507,0.5883754655463052,0.6224133398305609,-0.2650609060993659,-0.4375775972090374,0.4282275198750056,809.4871794871796,800.2197802197802,803.8461538461539,816.7399267399268,591.5018315018315,0.375244,0.167664,0.907288,-10.101166,-6.527252,-32.815704,307032.967033,130521245.421245,67800293.040293,83.376816,1,1,1,1,1,55.000000
2025-11-11 16:45:41.661,1.094137022552897,1.353211228892479,1.472589531307344,1.240207957578276,0.7502429884647142,1.087010285920899,1.016649334824483,1.000917945974393,1.003713141596785,0.7071645637562944,1.016716435470993,1.111905746773213,0.6175510351165775,0.5407369669321375,0.2439089335061507,0.4824775672452896,0.2483067178522289,-0.2650609060993659,-0.4375775972090374,0.425171510834385,813.919413919414,801.025641025641,814.7252747252747,819.1575091575091,790.1465201465202,0.326660,0.066284,1.367676,-2.168274,-0.553284,-15.663910,313479.853480,130696117.216117,67867985.347985,83.376816,1,1,1,1,1,55.000000
2025-11-11 16:45:42.164,,,,,,,,,,,,,,,,,,,,,,,,,,,,,,,,,,,,,,,,,,/muse/elements/blink
2025-11-11 16:45:42.661,1.196000908131531,1.353211228892479,1.472589531307344,1.335736550177993,0.8888228915140253,1.087010285920899,1.016649334824483,1.071655716821905,1.006963533550247,0.7071645637562944,1.016716435470993,1.145868829961245,0.6190461278276898,0.5407369669321375,0.2439089335061507,0.5130844776163839,0.1309407360146701,-0.2650609060993659,-0.4375775972090374,0.4426751817528902,798.2051282051282,795.3846153846154,770.8058608058608,821.978021978022,930.7692307692308,0.401733,0.044861,0.840271,19.447174,-6.377716,37.324219,309450.549451,130953992.673993,68046886.446886,83.376816,1,1,1,1,1,55.000000
2025-11-11 16:45:43.653,1.029036551558033,1.353211228892479,1.472589531307344,1.373812575980176,0.9325342173544529,1.087010285920899,1.016649334824483,0.872744401528349,0.8306470827200934,0.7071645637562944,1.016716435470993,1.121867246930871,0.4762518093517552,0.5407369669321375,0.2439089335061507,1.03330290167021,0.2449365124108809,-0.2650609060993659,-0.4375775972090374,0.6362454811330736,823.1868131868132,772.014652014652,755.8974358974359,814.7252747252747,599.5604395604396,0.428894,0.163086,0.844177,29.473572,18.729401,67.829590,318315.018315,131228791.208791,68166153.846154,83.376816,1,1,1,1,1,55.000000
2025-11-11 16:45:44.653,1.547701023846479,1.353211228892479,1.472589531307344,1.316776800206906,0.9940770081916606,1.087010285920899,1.016649334824483,0.7726877993178273,1.04875186399806,0.7071645637562944,1.016716435470993,1.393320607119349,0.6026771392316758,0.5407369669321375,0.2439089335061507,1.075173243632423,0.2867700201054835,-0.2650609060993659,-0.4375775972090374,0.8243926440348858,813.5164835164835,784.1025641025641,783.2967032967033,837.6923076923077,828.8278388278388,0.446167,0.126465,0.895630,10.407715,-17.069550,31.768951,315897.435897,131216703.296703,68110549.450549,83.376816,1,1,1,1,1,55.000000
2025-11-11 16:45:45.654,1.443873702583751,1.353211228892479,1.472589531307344,1.338880664966468,0.8414586507589571,1.087010285920899,1.016649334824483,1.150719731662232,1.016993710713135,0.7071645637562944,1.016716435470993,1.466378497382229,0.6504413199188771,0.5407369669321375,0.2439089335061507,1.43557374763217,0.2974321976029122,-0.2650609060993659,-0.4375775972090374,0.8967386519208534,834.8717948717949,791.7582417582418,801.4285714285714,829.6336996336996,792.1611721611722,0.365540,-0.034546,0.893799,16.284485,6.123505,36.598969,304615.384615,130957216.117216,67855897.435897,83.376816,1,1,1,1,1,55.000000
2025-11-11 16:45:46.336,,,,,,,,,,,,,,,,,,,,,,,,,,,,,,,,,,,,,,,,,,/muse/elements/blink
2025-11-11 16:45:46.655,1.603682606438322,1.353211228892479,1.472589531307344,1.336568281021591,1.32667760341396,1.087010285920899,1.016649334824483,1.202325329091675,1.262916626840048,0.7071645637562944,1.016716435470993,1.490028504361906,0.7335376713105362,0.5407369669321375,0.2439089335061507,1.435693528235547,0.602188252208771,-0.2650609060993659,-0.4375775972090374,1.005895556926274,840.9157509157509,810.6959706959707,799.8168498168499,813.5164835164835,582.2344322344322,0.379822,0.026306,0.837036,12.546082,22.879028,41.600952,304615.384615,130784761.904762,67700366.300366,109.514175,1,1,1,1,1,55.000000
2025-11-11 16:45:46.954,,,,,,,,,,,,,,,,,,,,,,,,,,,,,,,,,,,,,,,,,,/muse/elements/blink
2025-11-11 16:45:47.231,,,,,,,,,,,,,,,,,,,,,,,,,,,,,,,,,,,,,,,,,,/muse/elements/blink
2025-11-11 16:45:47.654,1.814260223819978,1.353211228892479,1.472589531307344,1.474402273180622,1.519989229704899,1.087010285920899,1.016649334824483,1.391492544526267,1.276667808809061,0.7071645637562944,1.016716435470993,1.444687600942089,0.8101690193878339,0.5407369669321375,0.2439089335061507,1.390284294634847,0.7659366495353487,-0.2650609060993659,-0.4375775972090374,0.8563400261235511,819.5604395604396,827.2161172161173,817.5457875457876,805.4578754578755,736.1538461538462,0.297974,0.203369,0.904602,15.148010,-6.684265,36.419525,303003.663004,130522051.282051,67622197.802198,109.514175,1,1,1,1,1,55.000000
2025-11-11 16:45:48.654,1.808133320804284,1.353211228892479,1.472589531307344,1.474402273180622,1.564862637204111,1.087010285920899,1.016649334824483,1.391492544526267,1.276667808809061,0.7071645637562944,1.016716435470993,1.444687600942089,0.8563911319682433,0.5407369669321375,0.2439089335061507,1.390284294634847,0.853947828169397,-0.2650609060993659,-0.4375775972090374,0.8563400261235511,805.0549450549451,821.5750915750916,816.7399267399268,809.4871794871796,894.1025641025641,0.426819,0.241577,0.971741,-63.979034,-8.792725,-105.273438,315091.575092,130507545.787546,67772087.912088,109.514175,1,1,1,1,1,55.000000
2025-11-11 16:45:49.404,,,,,,,,,,,,,,,,,,,,,,,,,,,,,,,,,,,,,,,,,,/muse/elements/blink
2025-11-11 16:45:49.654,1.354298502639919,1.353211228892479,1.472589531307344,1.133506780292222,1.000649396354128,1.087010285920899,1.016649334824483,0.9768858503889148,1.278284302583439,0.7071645637562944,1.016716435470993,1.06664881852142,1.33350445362518,0.5407369669321375,0.2439089335061507,0.6575343441090361,0.740490697297792,-0.2650609060993659,-0.4375775972090374,0.4482282662094719,812.7106227106227,867.1062271062272,988.3882783882784,818.7545787545788,446.4468864468865,0.298157,0.070190,0.918823,14.273224,4.299164,19.342499,315897.435897,130613113.553114,67833333.333333,109.514175,1,1,1,1,1,55.000000
2025-11-11 16:45:50.654,1.16121980202072,1.353211228892479,1.472589531307344,0.9373805192523799,1.089872565694477,1.087010285920899,1.016649334824483,0.9971198745101838,1.198121145896608,0.7071645637562944,1.016716435470993,0.9744054617859804,1.081236319568198,0.5407369669321375,0.2439089335061507,0.4615206913945448,0.6148342827602525,-0.2650609060993659,-0.4375775972090374,0.4328297264976699,821.978021978022,722.0512820512821,922.7106227106227,808.6813186813187,798.2051282051282,0.518127,0.090820,0.973816,27.051086,12.052612,66.737976,320732.600733,130347985.347985,67704395.604396,96.281250,1,1,1,1,1,55.000000
2025-11-11 16:45:51.519,,,,,,,,,,,,,,,,,,,,,,,,,,,,,,,,,,,,,,,,,,/muse/elements/blink
2025-11-11 16:45:51.658,1.16121980202072,1.353211228892479,1.472589531307344,0.9373805192523799,1.089872565694477,1.087010285920899,1.016649334824483,0.9971198745101838,1.198121145896608,0.7071645637562944,1.016716435470993,0.9744054617859804,1.081236319568198,0.5407369669321375,0.2439089335061507,0.4615206913945448,0.6148342827602525,-0.2650609060993659,-0.4375775972090374,0.4328297264976699,810.6959706959707,819.1575091575091,850.5860805860806,794.1758241758242,750.2564102564103,0.373840,0.135193,0.871948,20.553741,6.766510,36.942902,302197.802198,130210183.150183,67713260.073260,91.863388,1,1,1,1,1,55.000000
2025-11-11 16:45:52.659,1.16121980202072,1.353211228892479,1.472589531307344,0.9373805192523799,1.089872565694477,1.087010285920899,1.016649334824483,0.9971198745101838,1.198121145896608,0.7071645637562944,1.016716435470993,0.9744054617859804,1.081236319568198,0.5407369669321375,0.2439089335061507,0.4615206913945448,0.6148342827602525,-0.2650609060993659,-0.4375775972090374,0.4328297264976699,824.3956043956044,803.4432234432235,826.007326007326,854.6153846153846,751.4652014652015,0.362854,0.062561,1.122864,15.065765,5.517883,36.546631,303809.523810,129832234.432234,67682637.362637,91.689407,1,2,1,1,2,55.000000
2025-11-11 16:45:53.654,1.571964993570839,1.353211228892479,1.472589531307344,0.9373805192523799,1.477072732640415,1.087010285920899,1.016649334824483,0.9971198745101838,0.6113283292925862,0.7071645637562944,1.016716435470993,0.9744054617859804,0.5879273880025744,0.5407369669321375,0.2439089335061507,0.4615206913945448,0.1577372330894729,-0.2650609060993659,-0.4375775972090374,0.4328297264976699,823.5897435897436,839.3040293040293,826.007326007326,809.4871794871796,560.8791208791209,0.271912,0.017761,0.933960,14.445190,-19.118195,63.859406,305421.245421,129488131.868132,67751135.531136,88.715324,1,1,1,1,1,55.000000
2025-11-11 16:45:54.654,1.320411901164106,1.353211228892479,1.472589531307344,0.9373805192523799,1.221408319052442,1.087010285920899,1.016649334824483,0.9971198745101838,0.8564480815984806,0.7071645637562944,1.016716435470993,0.9744054617859804,0.5125299997542189,0.5407369669321375,0.2439089335061507,0.4615206913945448,0.2325139991997147,-0.2650609060993659,-0.4375775972090374,0.4328297264976699,791.3553113553114,815.1282051282052,728.0952380952381,794.981684981685,624.9450549450549,0.406921,0.149109,0.912415,-4.254303,1.450500,20.770569,307838.827839,129764542.124542,68022710.622711,83.560234,1,1,1,1,1,55.000000
2025-11-11 16:45:54.871,,,,,,,,,,,,,,,,,,,,,,,,,,,,,,,,,,,,,,,,,,/muse/elements/blink
2025-11-11 16:45:55.654,1.089431507139009,1.353211228892479,1.472589531307344,1.614200091396926,0.8923836273597885,1.087010285920899,1.016649334824483,1.501484973399893,0.9088837862749388,0.7071645637562944,1.016716435470993,1.141817980194826,0.2663537684057867,0.5407369669321375,0.2439089335061507,1.030484615967723,0.3387249228410794,-0.2650609060993659,-0.4375775972090374,0.4887172134505943,875.5677655677656,746.2271062271062,822.7838827838829,842.9304029304029,776.0439560439561,0.329834,0.150696,0.940796,-6.504822,10.504913,-29.854889,315897.435897,129921684.981685,67945347.985348,82.122513,1,1,1,1,1,55.000000
2025-11-11 16:45:55.873,,,,,,,,,,,,,,,,,,,,,,,,,,,,,,,,,,,,,,,,,,/muse/elements/blink
2025-11-11 16:45:56.654,1.196054342409905,1.353211228892479,1.472589531307344,1.617628198319606,0.8462770242340029,1.087010285920899,1.016649334824483,1.438748664048448,0.8691371494233682,0.7071645637562944,1.016716435470993,1.190280983876913,0.2720109865829255,0.5407369669321375,0.2439089335061507,1.033981398365766,0.3480602778665253,-0.2650609060993659,-0.4375775972090374,0.4910086060679984,949.3040293040293,750.2564102564103,799.8168498168499,913.4432234432235,697.4725274725275,0.329956,-0.010742,0.895142,-20.972443,-8.815155,-69.100647,379560.439560,130071575.091575,67907472.527473,80.923172,1,1,1,1,1,55.000000
2025-11-11 16:45:56.704,,,,,,,,,,,,,,,,,,,,,,,,,,,,,,,,,,,,,,,,,,/muse/elements/blink
2025-11-11 16:45:57.601,,,,,,,,,,,,,,,,,,,,,,,,,,,,,,,,,,,,,,,,,,/muse/elements/blink
2025-11-11 16:45:57.655,1.196054342409905,1.353211228892479,1.472589531307344,1.615513329476453,0.8462770242340029,1.087010285920899,1.016649334824483,1.271573740737036,0.8691371494233682,0.7071645637562944,1.016716435470993,1.175445505363491,0.2720109865829255,0.5407369669321375,0.2439089335061507,1.002958964865605,0.3480602778665253,-0.2650609060993659,-0.4375775972090374,0.4483358983312193,816.3369963369963,791.3553113553114,820.7692307692308,818.3516483516484,750.6593406593407,0.380005,0.014282,0.831055,-16.538696,6.497345,-31.163330,303809.523810,130447106.227106,68126666.666667,81.411980,1,1,1,1,1,55.000000
2025-11-11 16:45:58.451,,,,,,,,,,,,,,,,,,,,,,,,,,,,,,,,,,,,,,,,,,/muse/elements/blink
2025-11-11 16:45:58.654,1.196054342409905,1.353211228892479,1.472589531307344,1.615513329476453,0.8462770242340029,1.087010285920899,1.016649334824483,1.271573740737036,0.8691371494233682,0.7071645637562944,1.016716435470993,1.175445505363491,0.2720109865829255,0.5407369669321375,0.2439089335061507,1.002958964865605,0.3480602778665253,-0.2650609060993659,-0.4375775972090374,0.4483358983312193,786.9230769230769,825.2014652014652,868.7179487179487,808.2783882783883,987.5824175824176,0.370605,0.131226,0.871643,-23.574371,-7.454376,-60.300446,303003.663004,130203736.263736,67960659.340659,82.680084,1,2,1,1,2,55.000000
2025-11-11 16:45:59.654,1.397380121164433,1.353211228892479,1.472589531307344,1.593516529891974,1.400528959471848,1.087010285920899,1.016649334824483,1.476544728319521,1.301780073612725,0.7071645637562944,1.016716435470993,1.237940856667106,1.027864269757457,0.5407369669321375,0.2439089335061507,0.5394506387045384,0.8634558562795074,-0.2650609060993659,-0.4375775972090374,0.2564878936782126,801.4285714285714,805.0549450549451,827.2161172161173,816.7399267399268,585.0549450549451,0.478821,0.050598,0.867432,-38.670044,-8.284302,-58.326569,302197.802198,130170695.970696,67903443.223443,82.680084,1,1,1,1,1,55.000000
2025-11-11 16:46:00.663,1.277322022769427,1.353211228892479,1.472589531307344,1.401668397006222,1.268112317987623,1.087010285920899,1.016649334824483,1.327150434409871,1.317615009944989,0.7071645637562944,1.016716435470993,1.058917498522315,0.9113417000660088,0.5407369669321375,0.2439089335061507,0.4569983959931846,0.6743819562046937,-0.2650609060993659,-0.4375775972090374,0.2212236765870015,796.1904761904763,803.040293040293,834.8717948717949,802.6373626373627,772.8205128205128,0.384705,0.035217,0.872437,0.620575,-12.613373,-7.536621,308644.688645,129849963.369963,67846227.106227,82.680084,1,1,1,1,1,55.000000
2025-11-11 16:46:01.373,,,,,,,,,,,,,,,,,,,,,,,,,,,,,,,,,,,,,,,,,,/muse/elements/blink
2025-11-11 16:46:01.659,1.49329370426731,1.353211228892479,1.472589531307344,1.539569915773176,1.197362338589524,1.087010285920899,1.016649334824483,1.245566668694975,1.277890865654115,0.7071645637562944,1.016716435470993,1.443850353773996,0.8294169276515719,0.5407369669321375,0.2439089335061507,0.6224795097199991,0.3505541075943882,-0.2650609060993659,-0.4375775972090374,0.2694984848630543,765.5677655677656,792.967032967033,782.0879120879121,756.7032967032967,703.919413919414,0.385010,0.154358,0.900818,9.704895,0.822449,22.594910,317509.157509,130038534.798535,67967106.227106,82.680084,1,1,1,1,1,55.000000
2025-11-11 16:46:01.670,,,,,,,,,,,,,,,,,,,,,,,,,,,,,,,,,,,,,,,,,,/muse/elements/blink
2025-11-11 16:46:01.861,,,,,,,,,,,,,,,,,,,,,,,,,,,,,,,,,,,,,,,,,,/muse/elements/blink
2025-11-11 16:46:02.658,1.658207125815732,1.353211228892479,1.472589531307344,1.682159799717703,1.597877877540508,1.087010285920899,1.016649334824483,1.565583225431733,1.52698963739714,0.7071645637562944,1.016716435470993,1.505941699505534,0.8541672240880881,0.5407369669321375,0.2439089335061507,0.9687279096475512,0.2398218327973899,-0.2650609060993659,-0.4375775972090374,0.2398043707760634,822.3809523809524,769.5970695970697,747.032967032967,805.4578754578755,603.1868131868132,0.459412,0.163147,0.874878,13.316193,-0.717773,4.276733,323956.043956,130480952.380952,68065421.245421,78.397446,1,1,1,1,1,55.000000
2025-11-11 16:46:03.163,,,,,,,,,,,,,,,,,,,,,,,,,,,,,,,,,,,,,,,,,,/muse/elements/blink
2025-11-11 16:46:03.654,1.283915332053299,1.353211228892479,1.472589531307344,1.360570899829271,1.436741057163926,1.087010285920899,1.016649334824483,1.46898895531568,1.45529501327265,0.7071645637562944,1.016716435470993,1.438322686146687,0.7845369032422046,0.5407369669321375,0.2439089335061507,1.066011919104036,0.2217270338470151,-0.2650609060993659,-0.4375775972090374,0.2151931403758132,822.3809523809524,820.3663003663004,788.5347985347986,807.4725274725275,678.5347985347986,0.349609,0.091064,0.885620,30.796967,10.071259,53.975067,303809.523810,130828278.388278,68168571.428571,78.214203,1,1,1,1,1,55.000000
2025-11-11 16:46:04.037,,,,,,,,,,,,,,,,,,,,,,,,,,,,,,,,,,,,,,,,,,/muse/elements/blink
2025-11-11 16:46:04.655,0.9910511938790192,1.353211228892479,1.472589531307344,1.100943698460095,1.041375448892971,1.087010285920899,1.016649334824483,1.204394149460275,0.9609697058613278,0.7071645637562944,1.016716435470993,1.312357148474816,0.6136112302882784,0.5407369669321375,0.2439089335061507,0.9964308700909357,0.1690550945507363,-0.2650609060993659,-0.4375775972090374,0.1517235562222095,821.1721611721612,801.4285714285714,779.6703296703297,819.96336996337,864.6886446886447,0.382446,0.209351,0.859558,18.108826,13.061981,46.774902,302197.802198,130958827.838828,68097655.677656,77.247581,1,1,1,1,1,55.000000
2025-11-11 16:46:05.654,1.255183365692195,1.353211228892479,1.472589531307344,1.130968895650866,1.064725822283867,1.087010285920899,1.016649334824483,1.117731635894446,1.078521442354052,0.7071645637562944,1.016716435470993,1.047391381974685,0.4626178585624028,0.5407369669321375,0.2439089335061507,0.8696901788398306,0.3872094257859381,-0.2650609060993659,-0.4375775972090374,0.6133176190273478,832.4542124542124,794.1758241758242,799.4139194139194,811.5018315018315,589.4871794871796,0.410767,0.162048,0.759705,18.445282,15.738678,25.787506,303003.663004,130752527.472527,67966300.366300,77.025635,1,1,1,1,1,55.000000
2025-11-11 16:46:06.552,,,,,,,,,,,,,,,,,,,,,,,,,,,,,,,,,,,,,,,,,,/muse/elements/blink
2025-11-11 16:46:06.655,1.39243165126439,1.353211228892479,1.472589531307344,1.126946515996767,1.083570139130477,1.087010285920899,1.016649334824483,0.976025262906688,1.024376210466495,0.7071645637562944,1.016716435470993,1.032516709605593,0.4809011079810311,0.5407369669321375,0.2439089335061507,1.035411689339305,0.3092879444338317,-0.2650609060993659,-0.4375775972090374,0.8176005371194338,803.040293040293,834.0659340659341,854.6153846153846,808.6813186813187,661.6117216117216,0.318298,0.091187,0.902832,19.626617,5.443115,37.249451,305421.245421,130585714.285714,67930036.630037,77.025635,1,1,1,1,1,55.000000
2025-11-11 16:46:06.827,,,,,,,,,,,,,,,,,,,,,,,,,,,,,,,,,,,,,,,,,,/muse/elements/blink
2025-11-11 16:46:07.655,1.647215053176242,1.353211228892479,1.472589531307344,0.9590748492512705,1.337908226719327,1.087010285920899,1.016649334824483,0.6333833325142493,1.162625220382381,0.7071645637562944,1.016716435470993,0.7940741323097014,0.6345944579500165,0.5407369669321375,0.2439089335061507,1.019557344427912,0.4638267194569298,-0.2650609060993659,-0.4375775972090374,0.7256884639353504,760.7326007326008,749.4505494505495,669.6703296703297,743.0036630036631,798.6080586080586,0.427734,0.173340,0.954163,-0.919647,9.592743,12.710571,308644.688645,130920952.380952,67988864.468864,80.490952,1,1,1,1,1,55.000000
2025-11-11 16:46:07.868,,,,,,,,,,,,,,,,,,,,,,,,,,,,,,,,,,,,,,,,,,/muse/elements/blink
2025-11-11 16:46:08.655,1.3947808901906,1.353211228892479,1.472589531307344,0.9590748492512705,1.197878622167043,1.087010285920899,1.016649334824483,0.6333833325142493,1.00780001983255,0.7071645637562944,1.016716435470993,0.7940741323097014,0.5730469371836323,0.5407369669321375,0.2439089335061507,1.019557344427912,0.1169350932193042,-0.2650609060993659,-0.4375775972090374,0.7256884639353504,802.6373626373627,824.3956043956044,754.6886446886447,787.3260073260074,737.7655677655678,0.394714,0.192871,0.942322,-19.865875,-21.764984,-47.044067,303809.523810,130924981.684982,68029157.509158,82.999672,1,1,1,1,1,55.000000
2025-11-11 16:46:09.509,,,,,,,,,,,,,,,,,,,,,,,,,,,,,,,,,,,,,,,,,,/muse/elements/blink
2025-11-11 16:46:09.655,1.323626768463988,1.353211228892479,1.472589531307344,1.350740239240285,1.168837587994581,1.087010285920899,1.016649334824483,1.164346365971356,1.281472203682158,0.7071645637562944,1.016716435470993,0.9337476532663814,0.7747043025610045,0.5407369669321375,0.2439089335061507,0.6267481194987611,0.2433764203213014,-0.2650609060993659,-0.4375775972090374,0.2623844007978345,814.7252747252747,812.3076923076924,837.2893772893773,812.7106227106227,724.8717948717949,0.380737,-0.005615,0.899292,-23.305206,-8.112335,-56.113434,305421.245421,131162710.622711,68057362.637363,82.518532,1,1,1,1,1,55.000000
2025-11-11 16:46:10.129,,,,,,,,,,,,,,,,,,,,,,,,,,,,,,,,,,,,,,,,,,/muse/elements/blink
2025-11-11 16:46:10.654,1.371122801793265,1.353211228892479,1.472589531307344,1.512320719775885,1.239173953041415,1.087010285920899,1.016649334824483,1.365846441506419,1.208118208929478,0.7071645637562944,1.016716435470993,1.11539859106322,0.7669441657202457,0.5407369669321375,0.2439089335061507,0.5858158414162611,0.2923079357134122,-0.2650609060993659,-0.4375775972090374,0.2769389602402848,823.992673992674,701.5018315018315,708.7545787545788,820.3663003663004,761.941391941392,0.493408,0.055725,0.790649,-16.635895,2.444916,-18.497620,301391.941392,131186080.586081,67917948.717949,82.627563,1,1,1,1,1,55.000000
2025-11-11 16:46:11.407,,,,,,,,,,,,,,,,,,,,,,,,,,,,,,,,,,,,,,,,,,/muse/elements/blink
2025-11-11 16:46:11.655,1.412210160948356,1.353211228892479,1.472589531307344,1.590645443746633,1.144474331941938,1.087010285920899,1.016649334824483,1.270951546965802,0.974897524830113,0.7071645637562944,1.016716435470993,1.071548141041726,1.235834367877458,0.5407369669321375,0.2439089335061507,0.5071968590810843,0.5482545237617521,-0.2650609060993659,-0.4375775972090374,0.3003612539660034,807.8754578754579,798.6080586080586,855.0183150183151,800.2197802197802,608.8278388278388,0.431152,0.100769,0.847229,-34.879303,-3.865509,-57.915344,299780.219780,131155457.875458,67823663.003663,82.627563,1,1,1,1,1,55.000000
2025-11-11 16:46:12.026,,,,,,,,,,,,,,,,,,,,,,,,,,,,,,,,,,,,,,,,,,/muse/elements/blink
2025-11-11 16:46:12.658,1.544454263098541,1.353211228892479,1.472589531307344,1.607408956828416,1.292565999990166,1.087010285920899,1.016649334824483,1.371088865154425,0.9872502243811295,0.7071645637562944,1.016716435470993,1.084032115793484,0.8752435183703096,0.5407369669321375,0.2439089335061507,0.4601449116295722,0.4157534294202673,-0.2650609060993659,-0.4375775972090374,-0.1063288362619711,801.025641025641,799.4139194139194,795.3846153846154,786.1172161172161,793.3699633699634,0.458740,0.053467,0.894104,-22.938843,1.906586,-40.875702,303003.663004,131224761.904762,67885714.285714,103.050163,1,1,1,1,1,55.000000
2025-11-11 16:46:12.925,,,,,,,,,,,,,,,,,,,,,,,,,,,,,,,,,,,,,,,,,,/muse/elements/blink
2025-11-11 16:46:13.661,1.694912112809964,1.353211228892479,1.472589531307344,1.607408956828416,1.368204695739434,1.087010285920899,1.016649334824483,1.371088865154425,1.027318649888658,0.7071645637562944,1.016716435470993,1.084032115793484,0.6380261310202939,0.5407369669321375,0.2439089335061507,0.4601449116295722,0.1743484505542433,-0.2650609060993659,-0.4375775972090374,-0.1063288362619711,816.3369963369963,844.5421245421246,951.3186813186813,807.0695970695971,707.1428571428571,0.463928,0.001770,0.913330,-2.729034,-18.198547,-7.671204,311062.271062,131075677.655678,67863150.183150,106.582069,1,1,1,1,1,55.000000
2025-11-11 16:46:14.295,,,,,,,,,,,,,,,,,,,,,,,,,,,,,,,,,,,,,,,,,,/muse/elements/blink
2025-11-11 16:46:14.655,1.634880445887597,1.353211228892479,1.472589531307344,1.712889104855257,1.48502257036897,1.087010285920899,1.016649334824483,1.608259413047512,1.42139615913252,0.7071645637562944,1.016716435470993,1.547540231480586,0.8465596988434638,0.5407369669321375,0.2439089335061507,1.249840481298602,0.4272465126590559,-0.2650609060993659,-0.4375775972090374,0.3497658231618778,826.4102564102565,869.1208791208792,867.9120879120879,814.3223443223443,591.5018315018315,0.395020,0.162109,0.879639,15.245209,-4.538422,31.963348,316703.296703,130944322.344322,67852673.992674,106.582069,1,1,1,1,1,55.000000
2025-11-11 16:46:15.662,1.605145731600198,1.353211228892479,1.472589531307344,1.622944432490892,1.614979021764791,1.087010285920899,1.016649334824483,1.519106629460253,1.420806147306637,0.7071645637562944,1.016716435470993,1.54007034818858,0.7873548361322051,0.5407369669321375,0.2439089335061507,1.214678631799408,0.3845903919167878,-0.2650609060993659,-0.4375775972090374,0.4644879869687837,816.3369963369963,735.7509157509157,757.9120879120879,801.4285714285714,826.8131868131868,0.508362,0.130554,0.757996,20.307007,13.398438,14.362946,344102.564103,131030549.450549,67918754.578755,99.539070,1,1,1,1,1,55.000000
2025-11-11 16:46:15.870,,,,,,,,,,,,,,,,,,,,,,,,,,,,,,,,,,,,,,,,,,/muse/elements/blink
2025-11-11 16:46:16.404,,,,,,,,,,,,,,,,,,,,,,,,,,,,,,,,,,,,,,,,,,/muse/elements/blink
2025-11-11 16:46:16.655,1.605145731600198,1.353211228892479,1.472589531307344,1.704865032455109,1.614979021764791,1.087010285920899,1.016649334824483,1.562247104296649,1.420806147306637,0.7071645637562944,1.016716435470993,1.508775351889332,0.7873548361322051,0.5407369669321375,0.2439089335061507,1.130584268161567,0.3845903919167878,-0.2650609060993659,-0.4375775972090374,0.532825295858073,809.8901098901099,877.1794871794872,859.8534798534798,783.2967032967033,683.7728937728938,-0.021667,-0.013367,0.894287,8.538513,7.641296,33.488617,308644.688645,130999926.739927,67638315.018315,93.117310,1,1,1,1,1,55.000000
2025-11-11 16:46:17.634,,,,,,,,,,,,,,,,,,,,,,,,,,,,,,,,,,,,,,,,,,/muse/elements/blink
2025-11-11 16:46:17.655,1.605145731600198,1.353211228892479,1.472589531307344,1.704865032455109,1.614979021764791,1.087010285920899,1.016649334824483,1.562247104296649,1.420806147306637,0.7071645637562944,1.016716435470993,1.508775351889332,0.7873548361322051,0.5407369669321375,0.2439089335061507,1.130584268161567,0.3845903919167878,-0.2650609060993659,-0.4375775972090374,0.532825295858073,863.0769230769231,802.6373626373627,826.4102564102565,901.3553113553114,749.4505494505495,0.209778,0.224365,0.928101,17.734985,5.921631,99.598541,302197.802198,131378681.318681,67725347.985348,93.117310,1,2,1,1,2,55.000000
2025-11-11 16:46:18.401,,,,,,,,,,,,,,,,,,,,,,,,,,,,,,,,,,,,,,,,,,/muse/elements/blink
2025-11-11 16:46:18.655,1.605145731600198,1.353211228892479,1.472589531307344,1.704865032455109,1.614979021764791,1.087010285920899,1.016649334824483,1.562247104296649,1.420806147306637,0.7071645637562944,1.016716435470993,1.508775351889332,0.7873548361322051,0.5407369669321375,0.2439089335061507,1.130584268161567,0.3845903919167878,-0.2650609060993659,-0.4375775972090374,0.532825295858073,801.4285714285714,731.3186813186813,614.8717948717949,813.5164835164835,699.0842490842491,0.345581,0.149780,0.814575,8.089905,11.140442,28.269806,304615.384615,131190915.750916,67593186.813187,90.235870,1,2,1,1,2,55.000000
2025-11-11 16:46:19.655,1.605145731600198,1.353211228892479,1.472589531307344,1.704865032455109,1.614979021764791,1.087010285920899,1.016649334824483,1.562247104296649,1.420806147306637,0.7071645637562944,1.016716435470993,1.508775351889332,0.7873548361322051,0.5407369669321375,0.2439089335061507,1.130584268161567,0.3845903919167878,-0.2650609060993659,-0.4375775972090374,0.532825295858073,783.2967032967033,788.1318681318681,726.0805860805862,788.9377289377289,805.0549450549451,0.325500,0.054199,0.909607,19.439697,2.183228,35.821381,307838.827839,131277948.717949,67615750.915751,88.015793,1,2,1,1,2,55.000000
2025-11-11 16:46:19.869,,,,,,,,,,,,,,,,,,,,,,,,,,,,,,,,,,,,,,,,,,/muse/elements/blink
2025-11-11 16:46:20.379,,,,,,,,,,,,,,,,,,,,,,,,,,,,,,,,,,,,,,,,,,/muse/elements/blink
2025-11-11 16:46:20.655,1.605145731600198,1.353211228892479,1.472589531307344,1.704865032455109,1.614979021764791,1.087010285920899,1.016649334824483,1.562247104296649,1.420806147306637,0.7071645637562944,1.016716435470993,1.508775351889332,0.7873548361322051,0.5407369669321375,0.2439089335061507,1.130584268161567,0.3845903919167878,-0.2650609060993659,-0.4375775972090374,0.532825295858073,794.1758241758242,783.2967032967033,780.0732600732601,785.3113553113553,690.2197802197802,0.308716,0.100647,1.163269,-5.921631,-2.699127,3.058014,326373.626374,131347252.747253,67692307.692308,87.398949,1,2,1,1,2,55.000000
2025-11-11 16:46:20.657,,,,,,,,,,,,,,,,,,,,,,,,,,,,,,,,,,,,,,,,,,/muse/elements/blink
2025-11-11 16:46:21.168,,,,,,,,,,,,,,,,,,,,,,,,,,,,,,,,,,,,,,,,,,/muse/elements/blink
2025-11-11 16:46:21.654,1.605145731600198,1.353211228892479,1.472589531307344,1.558875218274408,1.614979021764791,1.087010285920899,1.016649334824483,1.702904037808924,1.420806147306637,0.7071645637562944,1.016716435470993,1.49791838395576,0.7873548361322051,0.5407369669321375,0.2439089335061507,0.8139150832200991,0.3845903919167878,-0.2650609060993659,-0.4375775972090374,0.3483815367433463,804.6520146520147,787.3260073260074,809.8901098901099,800.6227106227107,927.1428571428572,0.372437,0.162781,0.918274,-29.862366,-21.854706,-68.382874,305421.245421,131290036.630037,67688278.388278,86.803177,1,1,1,1,1,55.000000
2025-11-11 16:46:22.655,1.129611597650807,1.353211228892479,1.472589531307344,1.51243820464147,1.016962829881279,1.087010285920899,1.016649334824483,1.524359302588613,1.298174976921435,0.7071645637562944,1.016716435470993,1.398277701032977,0.632946818274022,0.5407369669321375,0.2439089335061507,0.7646643681961507,0.2979829170837316,-0.2650609060993659,-0.4375775972090374,0.3587591186805827,751.4652014652015,796.996336996337,806.2637362637363,754.2857142857143,457.7289377289378,0.389465,0.036743,0.880127,-28.052979,2.908478,-65.653839,302197.802198,131173992.673993,67677802.197802,86.176491,1,1,1,1,1,55.000000
2025-11-11 16:46:22.809,,,,,,,,,,,,,,,,,,,,,,,,,,,,,,,,,,,,,,,,,,/muse/elements/blink
2025-11-11 16:46:23.654,1.129611597650807,1.353211228892479,1.472589531307344,1.506366271761833,1.016962829881279,1.087010285920899,1.016649334824483,1.443181612541224,1.298174976921435,0.7071645637562944,1.016716435470993,1.335194030722688,0.632946818274022,0.5407369669321375,0.2439089335061507,0.7505245873895318,0.2979829170837316,-0.2650609060993659,-0.4375775972090374,0.3801987854760587,830.4395604395604,819.1575091575091,847.3626373626374,829.2307692307693,596.7399267399268,0.376404,0.014648,0.958496,-22.168732,-7.424469,-47.088928,300586.080586,131281172.161172,67674578.754579,86.176491,1,1,1,1,1,55.000000
2025-11-11 16:46:24.659,1.033163878550363,1.353211228892479,1.472589531307344,1.209793206597573,1.042764707872767,1.087010285920899,1.016649334824483,0.966797123964076,1.280789600428045,0.7071645637562944,1.016716435470993,0.9582104459773497,0.6591879225004635,0.5407369669321375,0.2439089335061507,0.628169318186349,0.2959076526711855,-0.2650609060993659,-0.4375775972090374,0.3740695991034524,832.8571428571429,801.025641025641,803.4432234432235,814.3223443223443,984.3589743589744,0.379822,0.130249,0.888977,-14.146118,4.874878,-32.561493,305421.245421,131036190.476190,67458608.058608,85.076897,1,1,1,1,1,55.000000
2025-11-11 16:46:25.328,,,,,,,,,,,,,,,,,,,,,,,,,,,,,,,,,,,,,,,,,,/muse/elements/blink
2025-11-11 16:46:25.543,,,,,,,,,,,,,,,,,,,,,,,,,,,,,,,,,,,,,,,,,,/muse/elements/blink
2025-11-11 16:46:25.662,1.432101760080261,1.353211228892479,1.472589531307344,1.318877719119876,1.515086121347438,1.087010285920899,1.016649334824483,1.094261157244813,1.449264816505648,0.7071645637562944,1.016716435470993,0.9585252434004596,0.8459501314688987,0.5407369669321375,0.2439089335061507,0.5930549383352546,0.3016398540828232,-0.2650609060993659,-0.4375775972090374,0.3582833693057039,799.0109890109891,785.3113553113553,772.4175824175825,813.919413919414,656.7765567765568,0.398621,0.086243,0.844421,1.181335,-0.179443,-22.064056,310256.410256,131183663.003663,67459413.919414,83.612862,1,1,1,1,1,55.000000
2025-11-11 16:46:26.034,,,,,,,,,,,,,,,,,,,,,,,,,,,,,,,,,,,,,,,,,,/muse/elements/blink
2025-11-11 16:46:26.569,,,,,,,,,,,,,,,,,,,,,,,,,,,,,,,,,,,,,,,,,,/muse/elements/blink
2025-11-11 16:46:26.655,1.513462012212957,1.353211228892479,1.472589531307344,1.367072364626777,1.821313928633215,1.087010285920899,1.016649334824483,1.161356948633257,1.421590870734856,0.7071645637562944,1.016716435470993,0.8463754977000036,0.7027508667565414,0.5407369669321375,0.2439089335061507,0.5075883604014024,0.2090959508799975,-0.2650609060993659,-0.4375775972090374,0.2901739533616088,837.6923076923077,822.7838827838829,810.6959706959707,810.6959706959707,528.2417582417582,0.295837,0.021851,0.882080,22.602386,0.456085,34.542847,323150.183150,131667179.487179,67647179.487179,82.904884,1,1,1,1,1,55.000000
2025-11-11 16:46:27.552,,,,,,,,,,,,,,,,,,,,,,,,,,,,,,,,,,,,,,,,,,/muse/elements/blink
2025-11-11 16:46:27.655,1.591669715187902,1.353211228892479,1.472589531307344,1.367072364626777,1.955934505481429,1.087010285920899,1.016649334824483,1.161356948633257,1.418940404433544,0.7071645637562944,1.016716435470993,0.8463754977000036,0.6880878874047366,0.5407369669321375,0.2439089335061507,0.5075883604014024,0.2159888472154851,-0.2650609060993659,-0.4375775972090374,0.2901739533616088,848.974358974359,770.4029304029305,757.5091575091575,843.7362637362637,754.2857142857143,0.426331,0.197571,0.840698,23.028564,2.250519,60.891113,312673.992674,131491501.831502,67660073.260073,83.138275,1,1,1,1,1,55.000000
2025-11-11 16:46:28.655,1.591669715187902,1.353211228892479,1.472589531307344,1.367072364626777,1.955934505481429,1.087010285920899,1.016649334824483,1.161356948633257,1.418940404433544,0.7071645637562944,1.016716435470993,0.8463754977000036,0.6880878874047366,0.5407369669321375,0.2439089335061507,0.5075883604014024,0.2159888472154851,-0.2650609060993659,-0.4375775972090374,0.2901739533616088,857.8388278388279,755.4945054945055,721.2454212454213,827.6190476190476,568.9377289377289,0.534363,0.225647,0.783203,11.132965,-8.291779,23.118286,302197.802198,131601098.901099,67925201.465201,82.016693,1,2,1,1,2,55.000000
2025-11-11 16:46:29.110,,,,,,,,,,,,,,,,,,,,,,,,,,,,,,,,,,,,,,,,,,/muse/elements/blink
2025-11-11 16:46:29.621,,,,,,,,,,,,,,,,,,,,,,,,,,,,,,,,,,,,,,,,,,/muse/elements/blink
2025-11-11 16:46:29.655,1.591669715187902,1.353211228892479,1.472589531307344,1.367072364626777,1.955934505481429,1.087010285920899,1.016649334824483,1.161356948633257,1.418940404433544,0.7071645637562944,1.016716435470993,0.8463754977000036,0.6880878874047366,0.5407369669321375,0.2439089335061507,0.5075883604014024,0.2159888472154851,-0.2650609060993659,-0.4375775972090374,0.2901739533616088,833.6630036630037,1259.56043956044,1622.197802197802,812.7106227106227,893.6996336996338,0.058411,-0.031067,0.941650,21.884613,15.701294,32.449341,303809.523810,131116776.556777,67306300.366300,81.534149,1,2,1,1,2,55.000000
2025-11-11 16:46:30.579,,,,,,,,,,,,,,,,,,,,,,,,,,,,,,,,,,,,,,,,,,/muse/elements/blink
2025-11-11 16:46:30.655,1.591669715187902,1.353211228892479,1.472589531307344,1.367072364626777,1.955934505481429,1.087010285920899,1.016649334824483,1.161356948633257,1.418940404433544,0.7071645637562944,1.016716435470993,0.8463754977000036,0.6880878874047366,0.5407369669321375,0.2439089335061507,0.5075883604014024,0.2159888472154851,-0.2650609060993659,-0.4375775972090374,0.2901739533616088,844.1391941391942,840.1098901098901,744.2124542124542,828.021978021978,711.5750915750916,0.131165,-0.004700,0.785400,8.478699,10.362854,46.281433,303809.523810,131167545.787546,67600439.560440,81.379936,1,2,1,1,2,55.000000
2025-11-11 16:46:31.659,1.591669715187902,1.353211228892479,1.472589531307344,1.367072364626777,1.955934505481429,1.087010285920899,1.016649334824483,1.161356948633257,1.418940404433544,0.7071645637562944,1.016716435470993,0.8463754977000036,0.6880878874047366,0.5407369669321375,0.2439089335061507,0.5075883604014024,0.2159888472154851,-0.2650609060993659,-0.4375775972090374,0.2901739533616088,779.2673992673992,603.5897435897436,776.4468864468864,792.5641025641025,589.0842490842491,0.194336,0.180542,0.882263,-15.080719,-11.686249,-21.480865,306227.106227,131638974.358974,67838168.498168,84.532265,1,2,1,1,2,55.000000
2025-11-11 16:46:32.655,1.257021627347987,1.353211228892479,1.472589531307344,1.367072364626777,0.7406496889079707,1.087010285920899,1.016649334824483,1.161356948633257,1.014215421221518,0.7071645637562944,1.016716435470993,0.8463754977000036,1.294926834389609,0.5407369669321375,0.2439089335061507,0.5075883604014024,0.4687610415041948,-0.2650609060993659,-0.4375775972090374,0.2901739533616088,830.8424908424909,717.6190476190476,725.2747252747253,838.4981684981685,1040.769230769231,0.448486,0.132874,0.908630,-8.321686,1.121521,-22.273407,331208.791209,131654285.714286,67828498.168498,85.193581,1,1,1,1,1,55.000000
2025-11-11 16:46:32.751,,,,,,,,,,,,,,,,,,,,,,,,,,,,,,,,,,,,,,,,,,/muse/elements/blink
2025-11-11 16:46:33.029,,,,,,,,,,,,,,,,,,,,,,,,,,,,,,,,,,,,,,,,,,/muse/elements/blink
2025-11-11 16:46:33.456,,,,,,,,,,,,,,,,,,,,,,,,,,,,,,,,,,,,,,,,,,/muse/elements/blink
2025-11-11 16:46:33.656,1.257021627347987,1.353211228892479,1.472589531307344,1.367072364626777,0.7406496889079707,1.087010285920899,1.016649334824483,1.161356948633257,1.014215421221518,0.7071645637562944,1.016716435470993,0.8463754977000036,1.294926834389609,0.5407369669321375,0.2439089335061507,0.5075883604014024,0.4687610415041948,-0.2650609060993659,-0.4375775972090374,0.2901739533616088,791.3553113553114,788.9377289377289,761.941391941392,803.8461538461539,739.3772893772893,0.362854,0.051147,0.916199,-21.630402,-6.744080,-50.049744,303003.663004,131585787.545788,67826080.586081,85.193581,1,1,1,1,1,55.000000
2025-11-11 16:46:34.656,1.257021627347987,1.353211228892479,1.472589531307344,1.367072364626777,0.7406496889079707,1.087010285920899,1.016649334824483,1.161356948633257,1.014215421221518,0.7071645637562944,1.016716435470993,0.8463754977000036,1.294926834389609,0.5407369669321375,0.2439089335061507,0.5075883604014024,0.4687610415041948,-0.2650609060993659,-0.4375775972090374,0.2901739533616088,815.934065934066,781.6849816849817,800.2197802197802,793.7728937728938,558.8644688644689,0.566101,0.124329,0.930359,-22.953796,-19.118195,-30.094147,300586.080586,131688131.868132,67751135.531136,115.540604,1,1,1,1,1,55.000000
2025-11-11 16:46:34.859,,,,,,,,,,,,,,,,,,,,,,,,,,,,,,,,,,,,,,,,,,/muse/elements/blink
2025-11-11 16:46:35.656,1.34679320020365,1.353211228892479,1.472589531307344,1.337236092864605,1.295087597161703,1.087010285920899,1.016649334824483,1.353998145720695,1.168501538998937,0.7071645637562944,1.016716435470993,1.189848985984495,1.129953928265826,0.5407369669321375,0.2439089335061507,0.7026492568862958,0.6244281373724868,-0.2650609060993659,-0.4375775972090374,0.4332621633965226,821.1721611721612,816.7399267399268,809.8901098901099,779.6703296703297,637.032967032967,0.364319,0.146362,0.896301,-40.561676,-17.435913,-76.390533,302197.802198,131572893.772894,67629450.549451,135.673737,1,1,1,1,1,55.000000
2025-11-11 16:46:36.586,,,,,,,,,,,,,,,,,,,,,,,,,,,,,,,,,,,,,,,,,,/muse/elements/blink
2025-11-11 16:46:36.660,1.359365533003196,1.353211228892479,1.472589531307344,1.434491808190677,1.233799955630042,1.087010285920899,1.016649334824483,1.274033651708385,1.123467914348915,0.7071645637562944,1.016716435470993,1.182690536562557,1.118061506744478,0.5407369669321375,0.2439089335061507,0.6539401912395653,0.598414221334823,-0.2650609060993659,-0.4375775972090374,0.3609820659621048,797.3992673992674,786.1172161172161,797.3992673992674,807.4725274725275,609.6336996336996,0.366150,-0.032104,0.887512,-12.747955,8.792725,-25.458527,304615.384615,131313406.593407,67484395.604396,135.673737,1,1,1,1,1,55.000000
2025-11-11 16:46:37.311,,,,,,,,,,,,,,,,,,,,,,,,,,,,,,,,,,,,,,,,,,/muse/elements/blink
2025-11-11 16:46:37.661,1.320039381878075,1.353211228892479,1.472589531307344,1.616838616848605,0.9135352905739776,1.087010285920899,1.016649334824483,1.210473636102836,1.072522250910936,0.7071645637562944,1.016716435470993,1.229259276990855,1.22813064530954,0.5407369669321375,0.2439089335061507,0.6086658671308688,0.6442529402072236,-0.2650609060993659,-0.4375775972090374,0.4154688528035633,825.6043956043957,813.1135531135532,818.3516483516484,823.1868131868132,589.8901098901099,0.335144,-0.031067,0.852051,5.487976,7.686157,-2.474823,307838.827839,131286007.326007,67469890.109890,114.460266,1,1,1,1,1,55.000000
2025-11-11 16:46:37.716,,,,,,,,,,,,,,,,,,,,,,,,,,,,,,,,,,,,,,,,,,/muse/elements/blink
2025-11-11 16:46:38.663,1.48171026847321,1.353211228892479,1.472589531307344,1.411899714270433,1.679301664307513,1.087010285920899,1.016649334824483,1.248943174147995,1.40153588867532,0.7071645637562944,1.016716435470993,1.295657456576397,0.9573416768649696,0.5407369669321375,0.2439089335061507,0.8516861948882596,0.7726835939094771,-0.2650609060993659,-0.4375775972090374,0.7311371751327703,828.021978021978,811.5018315018315,782.4908424908425,803.040293040293,577.8021978021978,0.335144,0.135376,0.898987,23.267822,-6.273041,43.971100,307838.827839,130960439.560440,67336117.216117,110.517265,1,1,1,1,1,55.000000
2025-11-11 16:46:39.655,1.600413222503179,1.448207325727059,1.472589531307344,1.372511326447032,1.583050865632982,1.334866059703585,1.016649334824483,1.170955112802829,1.293123760977866,0.5276543009966113,1.016716435470993,1.151644452164706,0.8447602412368813,0.5471777397541372,0.2439089335061507,0.7834498048001595,0.6469923732267924,0.1430165853332316,-0.4375775972090374,0.8049521642097788,817.1428571428571,500.4395604395605,596.3369963369963,823.5897435897436,663.6263736263736,0.561646,0.216553,0.704041,20.419159,18.034058,22.961273,303003.663004,130849230.769231,67584322.344322,97.393494,1,1,1,1,1,55.000000
2025-11-11 16:46:40.061,,,,,,,,,,,,,,,,,,,,,,,,,,,,,,,,,,,,,,,,,,/muse/elements/blink
2025-11-11 16:46:40.655,1.600413222503179,1.480219620010836,1.472589531307344,1.397807747404128,1.583050865632982,1.38646068157446,1.016649334824483,1.189394900655846,1.293123760977866,0.4732736066193113,1.016716435470993,0.9198030683316784,0.8447602412368813,0.5546665702603156,0.2439089335061507,0.7152383344962457,0.6469923732267924,0.1709040572311057,-0.4375775972090374,0.8302872491350383,826.4102564102565,844.9450549450549,890.4761904761905,817.5457875457876,577.3992673992674,0.440796,0.089294,0.860596,23.791199,5.293579,43.664551,300586.080586,130573626.373626,67488424.908425,88.524261,1,1,1,1,1,55.000000
2025-11-11 16:46:41.382,,,,,,,,,,,,,,,,,,,,,,,,,,,,,,,,,,,,,,,,,,/muse/elements/blink
2025-11-11 16:46:41.655,1.600413222503179,1.480219620010836,1.472589531307344,1.397807747404128,1.583050865632982,1.38646068157446,1.016649334824483,1.189394900655846,1.293123760977866,0.4732736066193113,1.016716435470993,0.9198030683316784,0.8447602412368813,0.5546665702603156,0.2439089335061507,0.7152383344962457,0.6469923732267924,0.1709040572311057,-0.4375775972090374,0.8302872491350383,821.1721611721612,803.4432234432235,693.4432234432235,814.7252747252747,788.5347985347986,0.596497,0.173340,0.788025,28.770752,4.568329,61.526642,303809.523810,130562344.322344,67494871.794872,85.305023,1,2,1,1,2,55.000000
2025-11-11 16:46:42.655,1.600413222503179,1.480219620010836,1.472589531307344,1.397807747404128,1.583050865632982,1.38646068157446,1.016649334824483,1.189394900655846,1.293123760977866,0.4732736066193113,1.016716435470993,0.9198030683316784,0.8447602412368813,0.5546665702603156,0.2439089335061507,0.7152383344962457,0.6469923732267924,0.1709040572311057,-0.4375775972090374,0.8302872491350383,805.8608058608058,815.1282051282052,761.1355311355312,811.5018315018315,854.6153846153846,0.508545,0.104614,0.827148,12.172241,-4.127197,28.890381,306227.106227,130779926.739927,67718901.098901,85.305023,1,2,1,1,2,55.000000
2025-11-11 16:46:42.791,,,,,,,,,,,,,,,,,,,,,,,,,,,,,,,,,,,,,,,,,,/muse/elements/blink
2025-11-11 16:46:43.026,,,,,,,,,,,,,,,,,,,,,,,,,,,,,,,,,,,,,,,,,,/muse/elements/blink
2025-11-11 16:46:43.654,1.600413222503179,1.480219620010836,1.472589531307344,1.397807747404128,1.583050865632982,1.38646068157446,1.016649334824483,1.189394900655846,1.293123760977866,0.4732736066193113,1.016716435470993,0.9198030683316784,0.8447602412368813,0.5546665702603156,0.2439089335061507,0.7152383344962457,0.6469923732267924,0.1709040572311057,-0.4375775972090374,0.8302872491350383,819.5604395604396,855.4212454212454,800.2197802197802,818.7545787545788,580.6227106227107,0.449524,0.046265,0.910034,-2.721558,12.508698,-8.934784,311062.271062,130887106.227106,67775311.355311,85.199455,1,2,1,1,2,55.000000
2025-11-11 16:46:44.661,1.600413222503179,1.480219620010836,1.472589531307344,1.397807747404128,1.583050865632982,1.38646068157446,1.016649334824483,1.189394900655846,1.293123760977866,0.4732736066193113,1.016716435470993,0.9198030683316784,0.8447602412368813,0.5546665702603156,0.2439089335061507,0.7152383344962457,0.6469923732267924,0.1709040572311057,-0.4375775972090374,0.8302872491350383,816.3369963369963,797.8021978021978,752.6739926739926,820.7692307692308,775.2380952380953,0.479309,0.081421,0.833008,-6.407623,-4.665527,-6.744080,300586.080586,131135311.355311,67950989.010989,84.295624,1,2,1,1,2,55.000000
2025-11-11 16:46:44.950,,,,,,,,,,,,,,,,,,,,,,,,,,,,,,,,,,,,,,,,,,/muse/elements/blink
2025-11-11 16:46:45.359,,,,,,,,,,,,,,,,,,,,,,,,,,,,,,,,,,,,,,,,,,/muse/elements/blink
2025-11-11 16:46:45.655,1.600413222503179,1.480219620010836,1.472589531307344,1.397807747404128,1.583050865632982,1.38646068157446,1.016649334824483,1.189394900655846,1.293123760977866,0.4732736066193113,1.016716435470993,0.9198030683316784,0.8447602412368813,0.5546665702603156,0.2439089335061507,0.7152383344962457,0.6469923732267924,0.1709040572311057,-0.4375775972090374,0.8302872491350383,807.0695970695971,823.1868131868132,807.0695970695971,811.9047619047619,1106.849816849817,0.404236,0.153870,0.897888,-22.236023,5.039368,-23.671570,305421.245421,131351282.051282,67944542.124542,84.295624,1,2,1,1,2,55.000000
2025-11-11 16:46:46.655,1.600413222503179,1.480219620010836,1.472589531307344,1.397807747404128,1.583050865632982,1.38646068157446,1.016649334824483,1.189394900655846,1.293123760977866,0.4732736066193113,1.016716435470993,0.9198030683316784,0.8447602412368813,0.5546665702603156,0.2439089335061507,0.7152383344962457,0.6469923732267924,0.1709040572311057,-0.4375775972090374,0.8302872491350383,729.3040293040293,913.040293040293,807.0695970695971,722.4542124542124,591.9047619047619,0.434326,0.201416,0.906128,-30.034332,-13.353577,-70.625916,303003.663004,131336776.556777,67942124.542125,84.295624,1,2,1,1,2,55.000000
2025-11-11 16:46:46.850,,,,,,,,,,,,,,,,,,,,,,,,,,,,,,,,,,,,,,,,,,/muse/elements/blink
2025-11-11 16:46:47.655,1.600413222503179,1.480219620010836,1.472589531307344,1.397807747404128,1.583050865632982,1.38646068157446,1.016649334824483,1.189394900655846,1.293123760977866,0.4732736066193113,1.016716435470993,0.9198030683316784,0.8447602412368813,0.5546665702603156,0.2439089335061507,0.7152383344962457,0.6469923732267924,0.1709040572311057,-0.4375775972090374,0.8302872491350383,819.1575091575091,842.1245421245421,789.7435897435897,811.9047619047619,663.2234432234433,0.448181,0.023987,0.874084,-29.092255,4.403839,-56.300354,302197.802198,131451208.791209,67934871.794872,84.295624,1,2,1,1,2,55.000000
2025-11-11 16:46:48.655,1.395810591225931,1.480219620010836,1.472589531307344,1.365894471725547,1.204806694580048,1.38646068157446,1.016649334824483,1.175441998687776,1.070525384958358,0.4732736066193113,1.016716435470993,0.7941794870337076,0.8688856715460668,0.5546665702603156,0.2439089335061507,0.5994503248488896,0.5148622337805615,0.1709040572311057,-0.4375775972090374,0.3862553291733131,814.7252747252747,807.8754578754579,794.981684981685,812.3076923076924,761.941391941392,0.466492,0.052185,0.866638,-23.694000,-9.435730,-36.733551,305421.245421,131086959.706960,67849450.549451,84.295624,1,1,1,1,1,55.000000
2025-11-11 16:46:49.201,,,,,,,,,,,,,,,,,,,,,,,,,,,,,,,,,,,,,,,,,,/muse/elements/blink
2025-11-11 16:46:49.477,,,,,,,,,,,,,,,,,,,,,,,,,,,,,,,,,,,,,,,,,,/muse/elements/blink
2025-11-11 16:46:49.658,1.445396589961224,1.480219620010836,1.472589531307344,1.49396369968125,1.270362530164097,1.38646068157446,1.016649334824483,1.422548865923645,1.066937188805722,0.4732736066193113,1.016716435470993,1.390502522330868,0.9219728918539577,0.5546665702603156,0.2439089335061507,0.640749970408359,0.5642593269765311,0.1709040572311057,-0.4375775972090374,0.3174750051503415,817.5457875457876,803.8461538461539,789.3406593406594,822.3809523809524,569.7435897435897,0.402100,0.123657,0.915344,2.444916,10.714264,3.005676,307838.827839,130854065.934066,67739853.479853,84.295624,1,1,1,1,1,55.000000
2025-11-11 16:46:49.711,,,,,,,,,,,,,,,,,,,,,,,,,,,,,,,,,,,,,,,,,,/muse/elements/blink
2025-11-11 16:46:49.924,,,,,,,,,,,,,,,,,,,,,,,,,,,,,,,,,,,,,,,,,,/muse/elements/blink
2025-11-11 16:46:50.095,,,,,,,,,,,,,,,,,,,,,,,,,,,,,,,,,,,,,,,,,,/muse/elements/blink
2025-11-11 16:46:50.658,1.697034249415368,1.480219620010836,1.472589531307344,1.688928734615248,1.68387043281,1.38646068157446,1.016649334824483,1.745810109255047,1.591498993595229,0.4732736066193113,1.016716435470993,1.594518477759414,0.8942474739902049,0.5546665702603156,0.2439089335061507,0.874733927215623,0.3515626997370627,0.1709040572311057,-0.4375775972090374,0.3893016298483868,803.8461538461539,809.4871794871796,792.5641025641025,810.2930402930403,538.3150183150183,0.450684,0.176086,0.938354,19.963074,-16.434021,23.409882,315091.575092,130921758.241758,67780146.520147,82.728027,1,1,1,1,1,55.000000
2025-11-11 16:46:51.461,,,,,,,,,,,,,,,,,,,,,,,,,,,,,,,,,,,,,,,,,,/muse/elements/blink
2025-11-11 16:46:51.655,1.443015430221776,1.480219620010836,1.472589531307344,1.353397490308822,1.199423924758752,1.38646068157446,1.016649334824483,1.424095149907099,1.324804365296586,0.4732736066193113,1.016716435470993,1.349324605735392,0.5944457823348529,0.5546665702603156,0.2439089335061507,0.741993881348641,0.2606798072413577,0.1709040572311057,-0.4375775972090374,0.4409092306233378,722.0512820512821,773.6263736263736,839.3040293040293,773.2234432234433,1007.326007326007,0.179688,-0.043884,0.989990,-4.187012,21.353760,31.282959,378754.578755,130862124.542125,67588351.648352,82.574997,1,1,1,1,1,55.000000
2025-11-11 16:46:51.826,,,,,,,,,,,,,,,,,,,,,,,,,,,,,,,,,,,,,,,,,,/muse/elements/blink
2025-11-11 16:46:52.250,,,,,,,,,,,,,,,,,,,,,,,,,,,,,,,,,,,,,,,,,,/muse/elements/blink
2025-11-11 16:46:52.654,1.398408793712223,1.480219620010836,1.472589531307344,1.315939340400696,1.000333303421429,1.38646068157446,1.016649334824483,1.339764709621948,1.016988440982603,0.4732736066193113,1.016716435470993,1.32108598784505,0.6408090801204722,0.5546665702603156,0.2439089335061507,0.6706610369927357,0.2735555969047468,0.1709040572311057,-0.4375775972090374,0.4148467280004985,832.0512820512821,795.3846153846154,807.8754578754579,783.2967032967033,566.1172161172161,0.359985,0.073242,0.826965,9.256287,8.710480,71.186676,299780.219780,131060366.300366,67629450.549451,82.574997,1,1,1,1,1,55.000000
2025-11-11 16:46:53.665,1.398408793712223,1.480219620010836,1.472589531307344,1.315939340400696,1.000333303421429,1.38646068157446,1.016649334824483,1.339764709621948,1.016988440982603,0.4732736066193113,1.016716435470993,1.32108598784505,0.6408090801204722,0.5546665702603156,0.2439089335061507,0.6706610369927357,0.2735555969047468,0.1709040572311057,-0.4375775972090374,0.4148467280004985,811.9047619047619,822.7838827838829,814.3223443223443,811.5018315018315,743.0036630036631,0.383362,0.113342,0.876404,16.501312,18.759308,55.163879,302197.802198,130912087.912088,67625421.245421,84.846947,1,2,1,1,2,55.000000
2025-11-11 16:46:54.250,,,,,,,,,,,,,,,,,,,,,,,,,,,,,,,,,,,,,,,,,,/muse/elements/blink
2025-11-11 16:46:54.655,1.388131994947176,1.480219620010836,1.472589531307344,1.315939340400696,1.299357130051914,1.38646068157446,1.016649334824483,1.339764709621948,1.212636052502767,0.4732736066193113,1.016716435470993,1.32108598784505,0.6946487457698521,0.5546665702603156,0.2439089335061507,0.6706610369927357,0.4950631398730926,0.1709040572311057,-0.4375775972090374,0.4148467280004985,823.992673992674,816.3369963369963,1132.637362637363,820.3663003663004,819.5604395604396,0.152954,0.038574,1.197449,10.093689,-4.740295,7.491760,316703.296703,130809743.589744,67257142.857143,84.846947,1,1,1,1,1,55.000000
2025-11-11 16:46:55.655,1.388131994947176,1.480219620010836,1.472589531307344,1.315939340400696,1.299357130051914,1.38646068157446,1.016649334824483,1.339764709621948,1.212636052502767,0.4732736066193113,1.016716435470993,1.32108598784505,0.6946487457698521,0.5546665702603156,0.2439089335061507,0.6706610369927357,0.4950631398730926,0.1709040572311057,-0.4375775972090374,0.4148467280004985,790.5494505494506,828.021978021978,850.1831501831502,811.9047619047619,501.2454212454213,0.241089,-0.029358,0.956970,-3.207550,-8.112335,30.849304,310256.410256,130755750.915751,67210402.930403,84.846947,1,1,1,1,1,55.000000
2025-11-11 16:46:56.595,,,,,,,,,,,,,,,,,,,,,,,,,,,,,,,,,,,,,,,,,,/muse/elements/blink
2025-11-11 16:46:56.655,0.8913347816533796,1.480219620010836,1.472589531307344,0.9429735223732421,0.8095033020472793,1.38646068157446,1.016649334824483,0.6243693642926348,0.9106599573517842,0.4732736066193113,1.016716435470993,1.547083933178014,0.6700172464765193,0.5546665702603156,0.2439089335061507,1.619812219607796,0.3091997244783994,0.1709040572311057,-0.4375775972090374,1.186722944518606,800.6227106227107,832.8571428571429,825.2014652014652,773.6263736263736,693.8461538461538,0.161621,0.071777,0.900085,-17.002258,-5.899200,-50.849762,300586.080586,130713846.153846,67252307.692308,84.846947,1,1,1,1,1,55.000000
2025-11-11 16:46:56.934,,,,,,,,,,,,,,,,,,,,,,,,,,,,,,,,,,,,,,,,,,/muse/elements/blink
2025-11-11 16:46:57.213,,,,,,,,,,,,,,,,,,,,,,,,,,,,,,,,,,,,,,,,,,/muse/elements/blink
2025-11-11 16:46:57.532,,,,,,,,,,,,,,,,,,,,,,,,,,,,,,,,,,,,,,,,,,/muse/elements/blink
2025-11-11 16:46:57.655,1.042364038828319,1.480219620010836,1.472589531307344,0.9884168086396562,0.9216739529692911,1.38646068157446,1.016649334824483,0.6517928076862404,0.8436858991457652,0.4732736066193113,1.016716435470993,1.537388861613981,0.7470721818566152,0.5546665702603156,0.2439089335061507,1.682572262585461,0.349326286103442,0.1709040572311057,-0.4375775972090374,1.124903850110513,797.3992673992674,752.2710622710623,721.2454212454213,808.6813186813187,1061.318681318681,0.255981,0.177612,0.897766,-11.334839,-9.861908,-74.521332,303003.663004,131024102.564103,67497289.377289,84.846947,1,1,1,1,1,55.000000
2025-11-11 16:46:58.532,,,,,,,,,,,,,,,,,,,,,,,,,,,,,,,,,,,,,,,,,,/muse/elements/blink
2025-11-11 16:46:58.655,1.042364038828319,1.480219620010836,1.472589531307344,0.9884168086396562,0.9216739529692911,1.38646068157446,1.016649334824483,0.6517928076862404,0.8436858991457652,0.4732736066193113,1.016716435470993,1.537388861613981,0.7470721818566152,0.5546665702603156,0.2439089335061507,1.682572262585461,0.349326286103442,0.1709040572311057,-0.4375775972090374,1.124903850110513,782.893772893773,754.6886446886447,895.7142857142858,770.8058608058608,490.3663003663004,0.296143,0.055359,0.945740,-21.473389,-10.250702,-55.575104,301391.941392,131355311.355311,67660073.260073,84.153839,1,1,1,1,1,55.000000
2025-11-11 16:46:59.655,1.042364038828319,1.480219620010836,1.472589531307344,0.9884168086396562,0.9216739529692911,1.38646068157446,1.016649334824483,0.6517928076862404,0.8436858991457652,0.4732736066193113,1.016716435470993,1.537388861613981,0.7470721818566152,0.5546665702603156,0.2439089335061507,1.682572262585461,0.349326286103442,0.1709040572311057,-0.4375775972090374,1.124903850110513,734.9450549450549,753.8827838827839,758.3150183150184,776.4468864468864,744.6153846153846,0.276367,0.042236,0.844910,-19.791107,18.662109,-48.001099,302197.802198,131182857.142857,67475531.135531,84.817879,1,2,1,1,2,55.000000
2025-11-11 16:46:59.840,,,,,,,,,,,,,,,,,,,,,,,,,,,,,,,,,,,,,,,,,,/muse/elements/blink
2025-11-11 16:47:00.656,1.042364038828319,1.480219620010836,1.472589531307344,1.673972067655578,0.9216739529692911,1.38646068157446,1.016649334824483,1.574298376182862,0.8436858991457652,0.4732736066193113,1.016716435470993,0.9006861577821978,0.7470721818566152,0.5546665702603156,0.2439089335061507,0.6855007520066289,0.349326286103442,0.1709040572311057,-0.4375775972090374,0.8600177156118946,818.3516483516484,802.6373626373627,792.5641025641025,805.0549450549451,771.2087912087912,0.286865,0.103455,0.912048,-22.123871,-7.731018,-58.319092,304615.384615,131295677.655678,67337728.937729,84.817879,1,1,1,1,1,55.000000
2025-11-11 16:47:01.392,,,,,,,,,,,,,,,,,,,,,,,,,,,,,,,,,,,,,,,,,,/muse/elements/blink
2025-11-11 16:47:01.658,1.058260392042509,1.10426436163834,1.472589531307344,1.360158503773259,1.108817318386518,1.270027363042812,1.016649334824483,1.318779566138563,1.187666852517478,0.6544441376786787,1.016716435470993,0.890798551777759,0.8595644654741631,0.2488135187891128,0.2439089335061507,0.5195757156953117,0.4552454656259609,-0.08526307678558949,-0.4375775972090374,0.6256111813144571,826.007326007326,848.1684981684982,820.3663003663004,836.8864468864469,583.4432234432235,0.212280,0.055481,1.125793,-4.112244,10.557251,-7.843170,311868.131868,131050695.970696,67176556.776557,84.817879,1,1,1,1,1,55.000000
2025-11-11 16:47:02.286,,,,,,,,,,,,,,,,,,,,,,,,,,,,,,,,,,,,,,,,,,/muse/elements/blink
2025-11-11 16:47:02.659,0.9633919494116603,1.118740919901107,1.472589531307344,1.231502356667357,1.028391240557905,1.214469147287059,1.016649334824483,1.164335777406853,1.093166738742654,0.6548085008166997,1.016716435470993,0.8293067324195823,0.7824776632833201,0.228627660465346,0.2439089335061507,0.4737265278217038,0.3515382506203015,-0.04971526184478618,-0.4375775972090374,0.5065180959194392,802.2344322344322,805.0549450549451,785.3113553113553,786.9230769230769,718.8278388278388,0.154968,0.035034,0.900818,12.314301,-10.848846,54.214325,340879.120879,131331941.391941,67243443.223443,84.817879,1,1,1,1,1,55.000000
2025-11-11 16:47:03.138,,,,,,,,,,,,,,,,,,,,,,,,,,,,,,,,,,,,,,,,,,/muse/elements/blink
2025-11-11 16:47:03.508,,,,,,,,,,,,,,,,,,,,,,,,,,,,,,,,,,,,,,,,,,/muse/elements/blink
2025-11-11 16:47:03.656,0.9633919494116603,1.160043789480095,1.424491733679186,1.231502356667357,1.028391240557905,1.217299842474206,1.194019138912676,1.164335777406853,1.093166738742654,0.6106669914938661,1.11802863071324,0.8293067324195823,0.7824776632833201,0.1997961210436089,0.2357602721779853,0.4737265278217038,0.3515382506203015,-0.01234271446237078,-0.1884406749999241,0.5065180959194392,806.6666666666667,783.2967032967033,787.7289377289378,807.4725274725275,832.8571428571429,0.272339,0.206177,0.934631,7.289886,1.555176,18.049011,344102.564103,131069230.769231,67110476.190476,84.817879,1,2,1,1,2,55.000000
2025-11-11 16:47:04.020,,,,,,,,,,,,,,,,,,,,,,,,,,,,,,,,,,,,,,,,,,/muse/elements/blink
2025-11-11 16:47:04.656,0.9633919494116603,1.263409073548626,1.30255289001172,1.02450166929321,1.028391240557905,1.011221656880742,1.129176564139319,1.470697359927595,1.093166738742654,0.7692341617514505,1.150503150144026,1.370616385575455,0.7824776632833201,0.6366687237025858,0.2808727639687891,0.7941865428759032,0.3515382506203015,0.2233196516353382,-0.1393743422377958,0.09010984605557135,835.2747252747253,813.5164835164835,802.2344322344322,816.3369963369963,630.5860805860806,-0.040344,0.257080,1.031555,10.048828,17.914429,32.711029,299780.219780,131008791.208791,67020219.780220,86.578003,1,1,1,1,1,55.000000
2025-11-11 16:47:05.472,,,,,,,,,,,,,,,,,,,,,,,,,,,,,,,,,,,,,,,,,,/muse/elements/blink
2025-11-11 16:47:05.656,0.9633919494116603,1.112207779480902,1.361770107491086,1.197466629719368,1.028391240557905,0.8327740550112068,1.020378197754918,1.360423030029662,1.093166738742654,0.7885452433423408,0.6849202589875185,1.32688310009978,0.7824776632833201,0.5306348050978765,0.4577274828212486,0.6017046218619121,0.3515382506203015,0.1737455005842664,-0.06507880433771357,0.2516012637455506,815.934065934066,829.6336996336996,772.4175824175825,807.4725274725275,660.8058608058608,0.130493,0.126099,0.923218,19.282684,7.985229,67.807159,303003.663004,131291648.351648,67157216.117216,86.897842,1,1,1,1,1,55.000000
2025-11-11 16:47:06.658,0.9633919494116603,0.878285742857027,1.361770107491086,1.197466629719368,1.028391240557905,0.5245973372635278,1.020378197754918,1.360423030029662,1.093166738742654,0.4564104884496617,0.6849202589875185,1.32688310009978,0.7824776632833201,0.390050227680085,0.4577274828212486,0.6017046218619121,0.3515382506203015,0.1177744956629468,-0.06507880433771357,0.2516012637455506,810.2930402930403,779.6703296703297,759.1208791208792,807.0695970695971,879.5970695970697,0.223816,0.231934,0.930786,1.854248,4.074860,37.077484,304615.384615,131273919.413919,67172527.472527,87.031769,1,1,1,1,1,55.000000
2025-11-11 16:47:07.655,0.8458925614620578,0.878285742857027,1.361770107491086,1.198613969478285,0.6824156351299763,0.5245973372635278,1.020378197754918,0.4497230615602146,0.6765508530205047,0.4564104884496617,0.6849202589875185,0.5626367432404841,0.47382716240627,0.390050227680085,0.4577274828212486,0.4891551605878408,0.3351828936309422,0.1177744956629468,-0.06507880433771357,0.4631961734114495,809.4871794871796,670.4761904761905,707.1428571428571,796.5934065934066,654.3589743589744,0.347961,0.207947,0.771179,-20.815430,-12.605896,-54.304047,315091.575092,131576117.216117,67386886.446886,87.148598,1,1,1,1,1,55.000000
2025-11-11 16:47:08.660,0.9692058159106032,0.878285742857027,1.361770107491086,1.044841841391372,0.7460335636061964,0.5245973372635278,1.020378197754918,0.6563606061045921,1.171266678950726,0.4564104884496617,0.6849202589875185,0.8690920493041844,0.457585883376772,0.390050227680085,0.4577274828212486,0.6219273224297783,0.3334946485504051,0.1177744956629468,-0.06507880433771357,0.3003279274543408,810.6959706959707,798.6080586080586,780.8791208791209,808.2783882783883,602.7838827838827,0.287048,0.096619,0.900940,17.936859,12.964783,25.323944,317509.157509,131244908.424908,67259560.439560,86.902542,1,1,1,1,1,55.000000
2025-11-11 16:47:08.799,,,,,,,,,,,,,,,,,,,,,,,,,,,,,,,,,,,,,,,,,,/muse/elements/blink
2025-11-11 16:47:09.655,1.458281224407976,0.878285742857027,1.361770107491086,1.016951554490937,1.161309853385297,0.5245973372635278,1.020378197754918,1.065292797581625,1.439097604287362,0.4564104884496617,0.6849202589875185,1.401847202100492,0.5575416020439352,0.390050227680085,0.4577274828212486,0.8083749887646421,0.2919060866814587,0.1177744956629468,-0.06507880433771357,0.3752277902814869,790.5494505494506,734.5421245421246,696.2637362637363,803.040293040293,743.0036630036631,0.439575,0.123779,1.030457,27.626801,6.818848,65.997772,319120.879121,131275531.135531,67354652.014652,84.493309,1,1,1,1,1,55.000000
