TimeStamp,Delta_TP9,Delta_AF7,Delta_AF8,Delta_TP10,Theta_TP9,Theta_AF7,Theta_AF8,Theta_TP10,Alpha_TP9,Alpha_AF7,Alpha_AF8,Alpha_TP10,Beta_TP9,Beta_AF7,Beta_AF8,Beta_TP10,Gamma_TP9,Gamma_AF7,Gamma_AF8,Gamma_TP10,RAW_TP9,RAW_AF7,RAW_AF8,RAW_TP10,AUX_RIGHT,Accelerometer_X,Accelerometer_Y,Accelerometer_Z,Gyro_X,Gyro_Y,Gyro_Z,PPG_Ambient,PPG_IR,PPG_Red,Heart_Rate,HeadBandOn,HSI_TP9,HSI_AF7,HSI_AF8,HSI_TP10,Battery,Elements
2025-11-11 09:20:25.022,,,,,,,,,,,,,,,,,,,,,,,,,,,,,,,,,,,,,,,,,,/muse/event/connected Muse-135C
2025-11-11 09:20:25.109,,,,,,,,,,,,,,,,,,,,,,,,,,,,,,,,,,,,,,,,,,/muse/elements/blink
2025-11-11 09:20:25.201,,,,,,,,,,,,,,,,,,,,,,,,,,,,,,,,,,,,,,,,,,/muse/elements/blink
2025-11-11 09:20:25.720,,,,,,,,,,,,,,,,,,,,,,,,,,,,,,,,,,,,,,,,,,/muse/elements/blink
2025-11-11 09:20:26.023,1.05760424114604,0.9191687195271069,0,1.000696058232251,0.6799307848251891,0.6019580046036763,0,1.457822083663595,0.8913809884199889,0.2985299701211079,0,1.338603094362828,0.6427747791514433,0.2650401071485086,0,1.292224258911446,0.7651094407588095,0.1372675714236208,0,1.476598680555652,823.5897435897436,863.8827838827839,49.15750915750916,861.4652014652015,799.0109890109891,-0.091858,0.199158,0.930786,-15.888214,-48.808594,-42.101898,389230.769231,153251355.311355,85141611.721612,114.924309,1,1,1,4,1,95.000000
2025-11-11 09:20:26.088,,,,,,,,,,,,,,,,,,,,,,,,,,,,,,,,,,,,,,,,,,/muse/elements/blink
2025-11-11 09:20:26.239,,,,,,,,,,,,,,,,,,,,,,,,,,,,,,,,,,,,,,,,,,/muse/elements/jaw_clench
2025-11-11 09:20:26.694,,,,,,,,,,,,,,,,,,,,,,,,,,,,,,,,,,,,,,,,,,/muse/elements/blink
2025-11-11 09:20:27.022,1.05760424114604,0.9191687195271069,0,1.000696058232251,0.6799307848251891,0.6019580046036763,0,1.457822083663595,0.8913809884199889,0.2985299701211079,0,1.338603094362828,0.6427747791514433,0.2650401071485086,0,1.292224258911446,0.7651094407588095,0.1372675714236208,0,1.476598680555652,857.4358974358975,802.2344322344322,695.0549450549451,844.5421245421246,963.8095238095239,0.028931,0.062988,1.002930,-8.037567,21.443481,-18.505096,314285.714286,153136117.216117,85115824.175824,128.468277,1,2,1,2,2,95.000000
2025-11-11 09:20:27.449,,,,,,,,,,,,,,,,,,,,,,,,,,,,,,,,,,,,,,,,,,/muse/elements/blink
2025-11-11 09:20:27.642,,,,,,,,,,,,,,,,,,,,,,,,,,,,,,,,,,,,,,,,,,/muse/elements/blink
2025-11-11 09:20:28.023,1.05760424114604,0.9191687195271069,0,1.000696058232251,0.6799307848251891,0.6019580046036763,0,1.457822083663595,0.8913809884199889,0.2985299701211079,0,1.338603094362828,0.6427747791514433,0.2650401071485086,0,1.292224258911446,0.7651094407588095,0.1372675714236208,0,1.476598680555652,826.4102564102565,774.0293040293041,649.5238095238095,855.4212454212454,1247.875457875458,0.066956,-0.103699,1.073669,5.689850,11.095581,-43.739319,311868.131868,153376263.736264,87301318.681319,147.905991,1,2,1,2,2,95.000000
2025-11-11 09:20:28.073,,,,,,,,,,,,,,,,,,,,,,,,,,,,,,,,,,,,,,,,,,/muse/elements/jaw_clench
2025-11-11 09:20:28.674,,,,,,,,,,,,,,,,,,,,,,,,,,,,,,,,,,,,,,,,,,/muse/elements/blink
2025-11-11 09:20:28.674,,,,,,,,,,,,,,,,,,,,,,,,,,,,,,,,,,,,,,,,,,/muse/elements/jaw_clench
2025-11-11 09:20:28.955,,,,,,,,,,,,,,,,,,,,,,,,,,,,,,,,,,,,,,,,,,/muse/elements/jaw_clench
2025-11-11 09:20:29.022,1.05760424114604,0.9191687195271069,0,1.000696058232251,0.6799307848251891,0.6019580046036763,0,1.457822083663595,0.8913809884199889,0.2985299701211079,0,1.338603094362828,0.6427747791514433,0.2650401071485086,0,1.292224258911446,0.7651094407588095,0.1372675714236208,0,1.476598680555652,807.8754578754579,823.5897435897436,211.9413919413919,846.959706959707,755.0915750915751,-0.145569,-0.158508,0.993958,3.312225,-9.630127,0.747681,318315.018315,153175604.395604,88090256.410256,147.905991,1,2,1,2,2,95.000000
2025-11-11 09:20:29.647,,,,,,,,,,,,,,,,,,,,,,,,,,,,,,,,,,,,,,,,,,/muse/elements/jaw_clench
2025-11-11 09:20:30.022,1.05760424114604,0.9191687195271069,0,1.000696058232251,0.6799307848251891,0.6019580046036763,0,1.457822083663595,0.8913809884199889,0.2985299701211079,0,1.338603094362828,0.6427747791514433,0.2650401071485086,0,1.292224258911446,0.7651094407588095,0.1372675714236208,0,1.476598680555652,787.7289377289378,811.0989010989011,587.8754578754579,774.8351648351648,610.4395604395604,0.061890,-0.056580,0.997742,-6.818848,16.112518,8.710480,337655.677656,153007985.347985,87525347.985348,147.905991,1,2,1,4,2,95.000000
2025-11-11 09:20:30.787,,,,,,,,,,,,,,,,,,,,,,,,,,,,,,,,,,,,,,,,,,/muse/elements/jaw_clench
2025-11-11 09:20:30.960,,,,,,,,,,,,,,,,,,,,,,,,,,,,,,,,,,,,,,,,,,/muse/elements/jaw_clench
2025-11-11 09:20:31.023,1.05760424114604,0.9191687195271069,0,1.000696058232251,0.6799307848251891,0.6019580046036763,0,1.457822083663595,0.8913809884199889,0.2985299701211079,0,1.338603094362828,0.6427747791514433,0.2650401071485086,0,1.292224258911446,0.7651094407588095,0.1372675714236208,0,1.476598680555652,854.6153846153846,755.8974358974359,0,894.5054945054945,721.6483516483516,0.023315,-0.027466,0.978577,4.740295,27.305298,-25.391235,368278.388278,152638095.238095,90572307.692308,147.905991,1,2,4,4,2,95.000000
2025-11-11 09:20:31.819,,,,,,,,,,,,,,,,,,,,,,,,,,,,,,,,,,,,,,,,,,/muse/elements/blink
2025-11-11 09:20:32.023,1.05760424114604,0.9191687195271069,0,1.000696058232251,0.6799307848251891,0.6019580046036763,0,1.457822083663595,0.8913809884199889,0.2985299701211079,0,1.338603094362828,0.6427747791514433,0.2650401071485086,0,1.292224258911446,0.7651094407588095,0.1372675714236208,0,1.476598680555652,800.2197802197802,808.2783882783883,292.9304029304029,821.1721611721612,770,-0.076660,0.068848,0.969116,-2.243042,29.054871,47.769318,392454.212454,151506666.666667,85882197.802198,147.905991,1,2,1,4,2,95.000000
2025-11-11 09:20:33.022,1.05760424114604,0.9191687195271069,0,1.000696058232251,0.6799307848251891,0.6019580046036763,0,1.457822083663595,0.8913809884199889,0.2985299701211079,0,1.338603094362828,0.6427747791514433,0.2650401071485086,0,1.292224258911446,0.7651094407588095,0.1372675714236208,0,1.476598680555652,782.0879120879121,809.0842490842491,313.4798534798535,778.8644688644689,605.6043956043957,-0.230469,0.018433,0.964294,-3.095398,-23.409882,14.482574,409377.289377,153212673.992674,88715604.395604,147.905991,1,2,1,2,2,95.000000
2025-11-11 09:20:33.324,,,,,,,,,,,,,,,,,,,,,,,,,,,,,,,,,,,,,,,,,,/muse/elements/blink
2025-11-11 09:20:33.647,,,,,,,,,,,,,,,,,,,,,,,,,,,,,,,,,,,,,,,,,,/muse/elements/blink
2025-11-11 09:20:33.647,,,,,,,,,,,,,,,,,,,,,,,,,,,,,,,,,,,,,,,,,,/muse/elements/jaw_clench
2025-11-11 09:20:34.025,1.05760424114604,0.9191687195271069,0,1.000696058232251,0.6799307848251891,0.6019580046036763,0,1.457822083663595,0.8913809884199889,0.2985299701211079,0,1.338603094362828,0.6427747791514433,0.2650401071485086,0,1.292224258911446,0.7651094407588095,0.1372675714236208,0,1.476598680555652,781.2820512820513,740.1831501831502,493.5897435897436,790.5494505494506,888.8644688644689,0.258972,-0.084473,1.165649,-2.033691,-19.073334,56.262970,611648.351648,153709084.249084,92155824.175824,147.905991,1,2,1,4,2,95.000000
2025-11-11 09:20:34.343,,,,,,,,,,,,,,,,,,,,,,,,,,,,,,,,,,,,,,,,,,/muse/elements/blink
2025-11-11 09:20:35.029,1.05760424114604,0.9191687195271069,0,1.000696058232251,0.6799307848251891,0.6019580046036763,0,1.457822083663595,0.8913809884199889,0.2985299701211079,0,1.338603094362828,0.6427747791514433,0.2650401071485086,0,1.292224258911446,0.7651094407588095,0.1372675714236208,0,1.476598680555652,801.8315018315019,758.3150183150184,705.5311355311355,767.5824175824176,752.2710622710623,0.278992,0.036621,0.909302,21.009827,16.299438,58.244324,866300.366300,153613992.673993,87667179.487179,147.905991,1,2,1,2,2,95.000000
2025-11-11 09:20:35.369,,,,,,,,,,,,,,,,,,,,,,,,,,,,,,,,,,,,,,,,,,/muse/elements/blink
2025-11-11 09:20:36.022,1.05760424114604,0.9191687195271069,0,1.000696058232251,0.6799307848251891,0.6019580046036763,0,1.457822083663595,0.8913809884199889,0.2985299701211079,0,1.338603094362828,0.6427747791514433,0.2650401071485086,0,1.292224258911446,0.7651094407588095,0.1372675714236208,0,1.476598680555652,787.7289377289378,781.2820512820513,502.051282051282,817.948717948718,1035.531135531136,0.286682,0.139832,1.489014,15.589142,-1.607513,22.684631,356190.476190,153041831.501832,87628498.168498,147.905991,1,2,1,2,2,95.000000
2025-11-11 09:20:37.022,1.05760424114604,0.9191687195271069,0,1.000696058232251,0.6799307848251891,0.6019580046036763,0,1.457822083663595,0.8913809884199889,0.2985299701211079,0,1.338603094362828,0.6427747791514433,0.2650401071485086,0,1.292224258911446,0.7651094407588095,0.1372675714236208,0,1.476598680555652,745.4212454212454,785.3113553113553,359.4139194139194,768.7912087912088,806.6666666666667,0.377563,-0.094727,0.942749,2.534637,-28.606262,43.769226,347326.007326,152087692.307692,90276556.776557,147.905991,1,2,1,2,2,95.000000
2025-11-11 09:20:37.198,,,,,,,,,,,,,,,,,,,,,,,,,,,,,,,,,,,,,,,,,,/muse/elements/blink
2025-11-11 09:20:38.022,1.05760424114604,0.9191687195271069,0,1.000696058232251,0.6799307848251891,0.6019580046036763,0,1.457822083663595,0.8913809884199889,0.2985299701211079,0,1.338603094362828,0.6427747791514433,0.2650401071485086,0,1.292224258911446,0.7651094407588095,0.1372675714236208,0,1.476598680555652,807.8754578754579,693.8461538461538,998.0586080586081,809.4871794871796,751.4652014652015,0.387512,0.154053,0.887573,-3.499146,19.746246,-25.002441,323956.043956,157790769.230769,94002857.142857,149.387909,1,2,1,2,2,95.000000
2025-11-11 09:20:38.280,,,,,,,,,,,,,,,,,,,,,,,,,,,,,,,,,,,,,,,,,,/muse/elements/jaw_clench
2025-11-11 09:20:38.784,,,,,,,,,,,,,,,,,,,,,,,,,,,,,,,,,,,,,,,,,,/muse/elements/blink
2025-11-11 09:20:38.892,,,,,,,,,,,,,,,,,,,,,,,,,,,,,,,,,,,,,,,,,,/muse/elements/jaw_clench
2025-11-11 09:20:39.021,,,,,,,,,,,,,,,,,,,,,,,,,,,,,,,,,,,,,,,,,,/muse/elements/blink
2025-11-11 09:20:39.031,1.05760424114604,0.9191687195271069,0,1.000696058232251,0.6799307848251891,0.6019580046036763,0,1.457822083663595,0.8913809884199889,0.2985299701211079,0,1.338603094362828,0.6427747791514433,0.2650401071485086,0,1.292224258911446,0.7651094407588095,0.1372675714236208,0,1.476598680555652,797.8021978021978,747.032967032967,527.032967032967,769.5970695970697,623.7362637362637,0.256897,0.165283,0.816589,-8.800201,-7.312317,-46.677704,363443.223443,154954139.194139,93296923.076923,155.176163,1,2,1,2,2,95.000000
2025-11-11 09:20:39.496,,,,,,,,,,,,,,,,,,,,,,,,,,,,,,,,,,,,,,,,,,/muse/elements/blink
2025-11-11 09:20:40.023,1.05760424114604,0.9191687195271069,0,1.000696058232251,0.6799307848251891,0.6019580046036763,0,1.457822083663595,0.8913809884199889,0.2985299701211079,0,1.338603094362828,0.6427747791514433,0.2650401071485086,0,1.292224258911446,0.7651094407588095,0.1372675714236208,0,1.476598680555652,806.6666666666667,796.996336996337,501.6483516483516,816.3369963369963,755.8974358974359,0.213318,0.131714,0.907227,-3.910370,-6.564636,-42.692566,655164.835165,155508571.428571,91501465.201465,155.176163,1,2,1,2,2,95.000000
2025-11-11 09:20:40.568,,,,,,,,,,,,,,,,,,,,,,,,,,,,,,,,,,,,,,,,,,/muse/elements/blink
2025-11-11 09:20:40.851,,,,,,,,,,,,,,,,,,,,,,,,,,,,,,,,,,,,,,,,,,/muse/elements/jaw_clench
2025-11-11 09:20:41.022,1.05760424114604,0.9191687195271069,0,1.000696058232251,0.6799307848251891,0.6019580046036763,0,1.457822083663595,0.8913809884199889,0.2985299701211079,0,1.338603094362828,0.6427747791514433,0.2650401071485086,0,1.292224258911446,0.7651094407588095,0.1372675714236208,0,1.476598680555652,702.3076923076924,1312.747252747253,1600.842490842491,816.3369963369963,748.6446886446887,0.093018,0.153320,1.031921,-21.458435,21.622925,-55.739594,484322.344322,156409523.809524,94179340.659341,135.487915,1,2,1,2,2,95.000000
2025-11-11 09:20:41.152,,,,,,,,,,,,,,,,,,,,,,,,,,,,,,,,,,,,,,,,,,/muse/elements/blink
2025-11-11 09:20:41.673,,,,,,,,,,,,,,,,,,,,,,,,,,,,,,,,,,,,,,,,,,/muse/elements/blink
2025-11-11 09:20:41.935,,,,,,,,,,,,,,,,,,,,,,,,,,,,,,,,,,,,,,,,,,/muse/elements/jaw_clench
2025-11-11 09:20:42.032,1.05760424114604,0.9191687195271069,0,1.000696058232251,0.6799307848251891,0.6019580046036763,0,1.457822083663595,0.8913809884199889,0.2985299701211079,0,1.338603094362828,0.6427747791514433,0.2650401071485086,0,1.292224258911446,0.7651094407588095,0.1372675714236208,0,1.476598680555652,774.0293040293041,832.4542124542124,1482.380952380953,849.7802197802198,542.3443223443223,-0.038391,0.202026,1.124878,7.237549,-17.936859,-38.101807,320732.600733,154435164.835165,94945714.285714,125.449982,1,2,1,4,2,95.000000
2025-11-11 09:20:43.025,1.05760424114604,0.9191687195271069,0,1.000696058232251,0.6799307848251891,0.6019580046036763,0,1.457822083663595,0.8913809884199889,0.2985299701211079,0,1.338603094362828,0.6427747791514433,0.2650401071485086,0,1.292224258911446,0.7651094407588095,0.1372675714236208,0,1.476598680555652,821.978021978022,785.7142857142858,417.0329670329671,863.4798534798535,819.5604395604396,0.369263,-0.055664,0.842285,-14.250793,-16.546173,-26.624908,332014.652015,157896336.996337,96181098.901099,111.961685,1,2,1,4,2,95.000000
2025-11-11 09:20:43.576,,,,,,,,,,,,,,,,,,,,,,,,,,,,,,,,,,,,,,,,,,/muse/elements/jaw_clench
2025-11-11 09:20:43.898,,,,,,,,,,,,,,,,,,,,,,,,,,,,,,,,,,,,,,,,,,/muse/elements/blink
2025-11-11 09:20:44.028,1.05760424114604,0.9191687195271069,0,1.000696058232251,0.6799307848251891,0.6019580046036763,0,1.457822083663595,0.8913809884199889,0.2985299701211079,0,1.338603094362828,0.6427747791514433,0.2650401071485086,0,1.292224258911446,0.7651094407588095,0.1372675714236208,0,1.476598680555652,860.2564102564103,779.2673992673992,1000.07326007326,792.1611721611722,838.901098901099,0.433960,-0.158752,0.640076,12.964783,19.297638,19.320068,361025.641026,156033186.813187,91719047.619048,110.291107,1,2,1,2,2,95.000000
2025-11-11 09:20:44.373,,,,,,,,,,,,,,,,,,,,,,,,,,,,,,,,,,,,,,,,,,/muse/elements/jaw_clench
2025-11-11 09:20:44.610,,,,,,,,,,,,,,,,,,,,,,,,,,,,,,,,,,,,,,,,,,/muse/elements/jaw_clench
2025-11-11 09:20:44.805,,,,,,,,,,,,,,,,,,,,,,,,,,,,,,,,,,,,,,,,,,/muse/elements/blink
2025-11-11 09:20:44.805,,,,,,,,,,,,,,,,,,,,,,,,,,,,,,,,,,,,,,,,,,/muse/elements/jaw_clench
2025-11-11 09:20:45.032,1.05760424114604,0.9191687195271069,0,1.000696058232251,0.6799307848251891,0.6019580046036763,0,1.457822083663595,0.8913809884199889,0.2985299701211079,0,1.338603094362828,0.6427747791514433,0.2650401071485086,0,1.292224258911446,0.7651094407588095,0.1372675714236208,0,1.476598680555652,765.1648351648352,859.047619047619,1621.794871794872,778.8644688644689,841.3186813186813,0.139526,0.033997,0.979248,3.723450,2.325287,33.383942,344102.564103,151673479.853480,86354432.234432,101.761581,1,2,1,2,2,95.000000
2025-11-11 09:20:45.129,,,,,,,,,,,,,,,,,,,,,,,,,,,,,,,,,,,,,,,,,,/muse/elements/blink
2025-11-11 09:20:45.730,,,,,,,,,,,,,,,,,,,,,,,,,,,,,,,,,,,,,,,,,,/muse/elements/jaw_clench
2025-11-11 09:20:46.023,1.05760424114604,0.9191687195271069,0,1.000696058232251,0.6799307848251891,0.6019580046036763,0,1.457822083663595,0.8913809884199889,0.2985299701211079,0,1.338603094362828,0.6427747791514433,0.2650401071485086,0,1.292224258911446,0.7651094407588095,0.1372675714236208,0,1.476598680555652,813.919413919414,748.6446886446887,994.8351648351648,840.9157509157509,565.3113553113553,0.312988,-0.072632,1.000122,3.125305,-23.851013,48.090820,457728.937729,153623663.003663,91433772.893773,99.590836,1,2,1,2,2,95.000000
2025-11-11 09:20:46.462,,,,,,,,,,,,,,,,,,,,,,,,,,,,,,,,,,,,,,,,,,/muse/elements/jaw_clench
2025-11-11 09:20:46.633,,,,,,,,,,,,,,,,,,,,,,,,,,,,,,,,,,,,,,,,,,/muse/elements/blink
2025-11-11 09:20:46.633,,,,,,,,,,,,,,,,,,,,,,,,,,,,,,,,,,,,,,,,,,/muse/elements/jaw_clench
2025-11-11 09:20:47.028,1.05760424114604,0.9191687195271069,0,1.000696058232251,0.6799307848251891,0.6019580046036763,0,1.457822083663595,0.8913809884199889,0.2985299701211079,0,1.338603094362828,0.6427747791514433,0.2650401071485086,0,1.292224258911446,0.7651094407588095,0.1372675714236208,0,1.476598680555652,819.96336996337,799.0109890109891,233.6996336996337,787.7289377289378,869.1208791208792,0.194336,0.047485,0.957214,5.360870,-2.250519,-3.985138,453699.633700,152833919.413919,90993772.893773,99.590836,1,2,1,4,2,95.000000
2025-11-11 09:20:47.062,,,,,,,,,,,,,,,,,,,,,,,,,,,,,,,,,,,,,,,,,,/muse/elements/blink
2025-11-11 09:20:47.149,,,,,,,,,,,,,,,,,,,,,,,,,,,,,,,,,,,,,,,,,,/muse/elements/jaw_clench
2025-11-11 09:20:47.858,,,,,,,,,,,,,,,,,,,,,,,,,,,,,,,,,,,,,,,,,,/muse/elements/jaw_clench
2025-11-11 09:20:48.023,1.05760424114604,0.9191687195271069,0,1.000696058232251,0.6799307848251891,0.6019580046036763,0,1.457822083663595,0.8913809884199889,0.2985299701211079,0,1.338603094362828,0.6427747791514433,0.2650401071485086,0,1.292224258911446,0.7651094407588095,0.1372675714236208,0,1.476598680555652,768.7912087912088,741.7948717948718,407.7655677655678,786.9230769230769,859.4505494505495,0.206421,0.194885,0.964111,8.269348,-11.170349,108.690338,1204761.904762,151463150.183150,95468717.948718,99.590836,1,2,1,4,2,95.000000
2025-11-11 09:20:48.030,,,,,,,,,,,,,,,,,,,,,,,,,,,,,,,,,,,,,,,,,,/muse/elements/blink
2025-11-11 09:20:49.022,1.05760424114604,0.9191687195271069,0,1.000696058232251,0.6799307848251891,0.6019580046036763,0,1.457822083663595,0.8913809884199889,0.2985299701211079,0,1.338603094362828,0.6427747791514433,0.2650401071485086,0,1.292224258911446,0.7651094407588095,0.1372675714236208,0,1.476598680555652,757.1062271062272,792.967032967033,545.5677655677656,813.919413919414,639.4505494505495,0.427734,-0.089050,0.831482,33.346558,-12.172241,82.671051,346520.146520,151712161.172161,93849743.589744,99.590836,1,2,1,2,2,95.000000
2025-11-11 09:20:50.023,1.05760424114604,0.9191687195271069,0,1.000696058232251,0.6799307848251891,0.6019580046036763,0,1.457822083663595,0.8913809884199889,0.2985299701211079,0,1.338603094362828,0.6427747791514433,0.2650401071485086,0,1.292224258911446,0.7651094407588095,0.1372675714236208,0,1.476598680555652,757.1062271062272,792.967032967033,545.5677655677656,813.919413919414,639.4505494505495,0.427734,-0.089050,0.831482,33.346558,-12.172241,82.671051,346520.146520,151712161.172161,93849743.589744,99.590836,1,2,1,2,2,95.000000
2025-11-11 09:20:50.576,,,,,,,,,,,,,,,,,,,,,,,,,,,,,,,,,,,,,,,,,,/muse/event/disconnected Muse-135C
2025-11-11 09:21:00.367,,,,,,,,,,,,,,,,,,,,,,,,,,,,,,,,,,,,,,,,,,/muse/event/connected Muse-135C
2025-11-11 09:21:01.023,1.05760424114604,0.9191687195271069,0,1.000696058232251,0.6799307848251891,0.6019580046036763,0,1.457822083663595,0.8913809884199889,0.2985299701211079,0,1.338603094362828,0.6427747791514433,0.2650401071485086,0,1.292224258911446,0.7651094407588095,0.1372675714236208,0,1.476598680555652,812.7106227106227,973.4798534798535,1409.85347985348,805.8608058608058,614.8717948717949,0.018860,0.051697,0.985596,-4.650574,-4.351501,-2.691650,312673.992674,149060073.260073,83996483.516484,99.590836,1,2,1,2,2,95.000000
2025-11-11 09:21:02.023,0,0,0,0,0,0,0,0,0,0,0,0,0,0,0,0,0,0,0,0,1358.681318681319,815.1282051282052,220.4029304029304,1339.340659340659,390.8424908424909,-0.120178,0.021545,1.003540,-1.958923,0.037384,0.067291,309450.549451,146649743.589744,79519926.739927,99.167366,0,4,4,4,4,95.000000
2025-11-11 09:21:03.022,0,0,0,0,0,0,0,0,0,0,0,0,0,0,0,0,0,0,0,0,961.7948717948718,821.5750915750916,211.1355311355312,819.5604395604396,851.3919413919414,-0.035522,0.049927,0.984619,-0.523376,-4.231873,3.551483,332014.652015,156403076.923077,112824542.124542,99.167366,0,4,4,4,4,95.000000
2025-11-11 09:21:03.798,,,,,,,,,,,,,,,,,,,,,,,,,,,,,,,,,,,,,,,,,,/muse/elements/blink
2025-11-11 09:21:04.023,0,0,0,0,0,0,0,0,0,0,0,0,0,0,0,0,0,0,0,0,754.2857142857143,778.0586080586081,1601.245421245421,653.956043956044,1082.673992673993,-0.010742,0.030640,1.005981,-1.457977,4.882355,1.786957,311062.271062,145743150.183150,79505421.245421,99.167366,1,4,1,2,2,95.000000
2025-11-11 09:21:04.077,,,,,,,,,,,,,,,,,,,,,,,,,,,,,,,,,,,,,,,,,,/muse/elements/blink
2025-11-11 09:21:04.505,,,,,,,,,,,,,,,,,,,,,,,,,,,,,,,,,,,,,,,,,,/muse/elements/blink
2025-11-11 09:21:05.029,0,0,0,0,0,0,0,0,0,0,0,0,0,0,0,0,0,0,0,0,675.7142857142858,779.6703296703297,58.82783882783883,80.58608058608058,745.8241758241759,-0.025574,0.026855,1.015381,0.201874,-6.437531,-0.620575,309450.549451,147773113.553114,79139560.439560,92.449814,1,2,1,4,2,95.000000
2025-11-11 09:21:05.298,,,,,,,,,,,,,,,,,,,,,,,,,,,,,,,,,,,,,,,,,,/muse/elements/blink
2025-11-11 09:21:06.023,0,0,0,0,0,0,0,0,0,0,0,0,0,0,0,0,0,0,0,0,813.1135531135532,774.4322344322345,502.4542124542125,838.4981684981685,734.1391941391942,0.025879,0.016846,0.993469,-7.626343,11.805878,16.755524,314285.714286,148691794.871795,79923663.003663,85.873642,1,2,1,4,2,95.000000
2025-11-11 09:21:06.093,,,,,,,,,,,,,,,,,,,,,,,,,,,,,,,,,,,,,,,,,,/muse/elements/blink
2025-11-11 09:21:07.023,0,0,0,0,0,0,0,0,0,0,0,0,0,0,0,0,0,0,0,0,794.5787545787546,793.3699633699634,624.9450549450549,802.6373626373627,834.8717948717949,-0.072266,-0.042542,0.998901,-0.942078,0.059814,-0.007477,311062.271062,149135824.175824,79980879.120879,83.428734,1,2,1,1,2,95.000000
2025-11-11 09:21:07.637,,,,,,,,,,,,,,,,,,,,,,,,,,,,,,,,,,,,,,,,,,/muse/elements/blink
2025-11-11 09:21:08.023,0,-0.008058736083714723,0,0,0,-0.02091311179562473,0,0,0,0.1665986973161494,0,0,0,0.1347388599344338,0,0,0,-0.05016928285097549,0,0,807.4725274725275,792.967032967033,678.1318681318681,769.5970695970697,725.2747252747253,-0.130859,-0.050232,0.991211,-2.519684,-0.373840,-0.441132,311062.271062,149599194.139194,80353186.813187,83.428734,1,2,1,1,2,95.000000
2025-11-11 09:21:09.023,0,0.2532882557531958,0,0,0,-0.1181344763899203,0,0,0,0.1627710279667351,0,0,0,0.07871017574220585,0,0,0,-0.05382780247062329,0,0,828.8278388278388,795.3846153846154,815.5311355311355,811.9047619047619,622.5274725274726,-0.126526,-0.052917,0.992981,0.336456,-3.850555,0.695343,313479.853480,150335750.915751,80934212.454212,83.428734,1,2,1,1,2,95.000000
2025-11-11 09:21:09.461,,,,,,,,,,,,,,,,,,,,,,,,,,,,,,,,,,,,,,,,,,/muse/elements/blink
2025-11-11 09:21:10.022,1.042503835662244,-0.01890246262693388,0,0,1.145013062642794,-0.4592773369703062,0,0,1.132445309028644,-0.2112939909704426,0,0,0.6039824544084496,0.05436124564309915,0,0,0.1505131675982591,-0.2583979288047424,0,0,859.4505494505495,795.3846153846154,785.7142857142858,799.4139194139194,738.974358974359,-0.137817,-0.054016,0.987305,-0.209351,-1.742096,0.284119,314285.714286,150724981.684982,81424175.824176,82.641617,1,1,1,1,1,95.000000
2025-11-11 09:21:10.361,,,,,,,,,,,,,,,,,,,,,,,,,,,,,,,,,,,,,,,,,,/muse/elements/blink
2025-11-11 09:21:11.023,1.104609052105161,0.1644596492604826,0,0,1.249081217158326,0.06912700956959124,0,0,1.132445309028644,0.2789756748351008,0,0,0.6521408316164294,0.01411520275622114,0,0,0.1151820286536213,-0.2801852022414229,0,0,823.5897435897436,794.5787545787546,812.3076923076924,811.5018315018315,709.1575091575091,-0.155396,-0.050171,0.993469,-0.620575,-1.958923,-0.104675,312673.992674,150913553.113553,81537802.197802,82.337677,1,1,1,1,1,95.000000
2025-11-11 09:21:11.797,,,,,,,,,,,,,,,,,,,,,,,,,,,,,,,,,,,,,,,,,,/muse/elements/blink
2025-11-11 09:21:12.023,1.000557689511437,0.2462886141513614,0,0,1.223562187371409,0.108606011313347,0,0,1.107847969947154,0.2849882741523168,0,0,0.6661921374038863,-0.03010392060904288,0,0,0.1372231398870337,-0.3675449922861898,0,0,538.3150183150183,824.3956043956044,1389.304029304029,697.8754578754579,757.1062271062272,0.278870,0.160767,0.953369,-16.815338,-17.166748,-43.380432,316703.296703,148861025.641026,81375824.175824,82.337677,1,1,1,1,1,95.000000
2025-11-11 09:21:12.098,,,,,,,,,,,,,,,,,,,,,,,,,,,,,,,,,,,,,,,,,,/muse/elements/jaw_clench
2025-11-11 09:21:12.184,,,,,,,,,,,,,,,,,,,,,,,,,,,,,,,,,,,,,,,,,,/muse/elements/blink
2025-11-11 09:21:12.794,,,,,,,,,,,,,,,,,,,,,,,,,,,,,,,,,,,,,,,,,,/muse/elements/blink
2025-11-11 09:21:13.030,1.000557689511437,0.3281712106311927,0,0,1.223562187371409,-0.6365389171179202,0,0,1.107847969947154,-0.3507583347780547,0,0,0.6661921374038863,0.01843242385914401,0,0,0.1372231398870337,-0.3342671561735717,0,0,799.0109890109891,778.8644688644689,706.3369963369963,813.1135531135532,692.6373626373627,0.260498,0.250488,0.836060,-40.060730,5.884247,-78.633575,311062.271062,149325201.465201,81155018.315018,81.793526,1,2,1,1,2,95.000000
2025-11-11 09:21:13.226,,,,,,,,,,,,,,,,,,,,,,,,,,,,,,,,,,,,,,,,,,/muse/elements/jaw_clench
2025-11-11 09:21:14.022,,,,,,,,,,,,,,,,,,,,,,,,,,,,,,,,,,,,,,,,,,/muse/elements/blink
2025-11-11 09:21:14.032,1.000557689511437,0.3281712106311927,0,0,1.223562187371409,-0.6365389171179202,0,0,1.107847969947154,-0.3507583347780547,0,0,0.6661921374038863,0.01843242385914401,0,0,0.1372231398870337,-0.3342671561735717,0,0,829.2307692307693,785.3113553113553,763.956043956044,859.8534798534798,677.3260073260074,0.242432,0.019958,0.925720,-7.783356,3.147736,-53.631134,307838.827839,149326007.326007,81265421.245421,78.959190,1,2,1,1,2,95.000000
2025-11-11 09:21:14.842,,,,,,,,,,,,,,,,,,,,,,,,,,,,,,,,,,,,,,,,,,/muse/elements/blink
2025-11-11 09:21:15.024,1.000557689511437,0.3281712106311927,0,0,1.223562187371409,-0.6365389171179202,0,0,1.107847969947154,-0.3507583347780547,0,0,0.6661921374038863,0.01843242385914401,0,0,0.1372231398870337,-0.3342671561735717,0,0,871.1355311355312,772.014652014652,1233.369963369963,841.7216117216118,975.8974358974359,0.498474,-0.127563,0.739502,-9.772186,2.355194,-1.801910,319926.739927,150546080.586081,81556336.996337,78.959190,1,2,1,1,2,95.000000
2025-11-11 09:21:15.142,,,,,,,,,,,,,,,,,,,,,,,,,,,,,,,,,,,,,,,,,,/muse/elements/blink
2025-11-11 09:21:15.743,,,,,,,,,,,,,,,,,,,,,,,,,,,,,,,,,,,,,,,,,,/muse/elements/blink
2025-11-11 09:21:15.982,,,,,,,,,,,,,,,,,,,,,,,,,,,,,,,,,,,,,,,,,,/muse/elements/blink
2025-11-11 09:21:16.023,1.000557689511437,0.3281712106311927,0,0,1.223562187371409,-0.6365389171179202,0,0,1.107847969947154,-0.3507583347780547,0,0,0.6661921374038863,0.01843242385914401,0,0,0.1372231398870337,-0.3342671561735717,0,0,752.6739926739926,808.6813186813187,571.3553113553114,787.7289377289378,807.4725274725275,0.118530,0.042114,0.919922,-6.489868,-5.398254,27.297821,348937.728938,150618608.058608,85208498.168498,78.959190,1,2,1,4,2,95.000000
2025-11-11 09:21:16.263,,,,,,,,,,,,,,,,,,,,,,,,,,,,,,,,,,,,,,,,,,/muse/elements/blink
2025-11-11 09:21:16.865,,,,,,,,,,,,,,,,,,,,,,,,,,,,,,,,,,,,,,,,,,/muse/elements/blink
2025-11-11 09:21:17.029,1.000557689511437,0.3281712106311927,0,0,1.223562187371409,-0.6365389171179202,0,0,1.107847969947154,-0.3507583347780547,0,0,0.6661921374038863,0.01843242385914401,0,0,0.1372231398870337,-0.3342671561735717,0,0,821.978021978022,776.4468864468864,1303.479853479854,879.1941391941392,736.959706959707,0.250427,0.106689,0.953613,18.131256,16.262054,30.826874,440000.000000,149907838.827839,85249597.069597,78.959190,1,2,1,4,2,95.000000
2025-11-11 09:21:17.081,,,,,,,,,,,,,,,,,,,,,,,,,,,,,,,,,,,,,,,,,,/muse/elements/jaw_clench
2025-11-11 09:21:18.023,1.000557689511437,0.3281712106311927,0,0,1.223562187371409,-0.6365389171179202,0,0,1.107847969947154,-0.3507583347780547,0,0,0.6661921374038863,0.01843242385914401,0,0,0.1372231398870337,-0.3342671561735717,0,0,865.8974358974359,801.8315018315019,456.5201465201465,867.1062271062272,758.3150183150184,-0.050720,-0.030457,1.014954,9.517975,-38.124237,71.059570,995238.095238,150778974.358974,85780659.340659,78.959190,1,2,1,2,2,95.000000
2025-11-11 09:21:18.097,,,,,,,,,,,,,,,,,,,,,,,,,,,,,,,,,,,,,,,,,,/muse/elements/blink
2025-11-11 09:21:19.023,1.000557689511437,0.3281712106311927,0,0,1.223562187371409,-0.6365389171179202,0,0,1.107847969947154,-0.3507583347780547,0,0,0.6661921374038863,0.01843242385914401,0,0,0.1372231398870337,-0.3342671561735717,0,0,802.6373626373627,794.1758241758242,619.7069597069598,803.8461538461539,724.0659340659341,0.130432,0.214905,0.978394,33.496094,19.118195,82.715912,330402.930403,151824175.824176,91497435.897436,78.959190,1,2,1,2,2,95.000000
2025-11-11 09:21:19.025,,,,,,,,,,,,,,,,,,,,,,,,,,,,,,,,,,,,,,,,,,/muse/elements/blink
2025-11-11 09:21:19.412,,,,,,,,,,,,,,,,,,,,,,,,,,,,,,,,,,,,,,,,,,/muse/elements/blink
2025-11-11 09:21:19.926,,,,,,,,,,,,,,,,,,,,,,,,,,,,,,,,,,,,,,,,,,/muse/elements/blink
2025-11-11 09:21:20.023,1.000557689511437,0.3281712106311927,0,0,1.223562187371409,-0.6365389171179202,0,0,1.107847969947154,-0.3507583347780547,0,0,0.6661921374038863,0.01843242385914401,0,0,0.1372231398870337,-0.3342671561735717,0,0,592.3076923076924,792.5641025641025,1016.996336996337,570.1465201465202,593.5164835164835,0.391296,0.129761,0.973511,-11.888123,21.151886,14.953613,337655.677656,151745201.465201,91045347.985348,78.959190,1,2,1,2,2,95.000000
2025-11-11 09:21:20.254,,,,,,,,,,,,,,,,,,,,,,,,,,,,,,,,,,,,,,,,,,/muse/elements/blink
2025-11-11 09:21:21.022,1.000557689511437,0.3281712106311927,0,0,1.223562187371409,-0.6365389171179202,0,0,1.107847969947154,-0.3507583347780547,0,0,0.6661921374038863,0.01843242385914401,0,0,0.1372231398870337,-0.3342671561735717,0,0,773.6263736263736,791.7582417582418,976.3003663003664,795.3846153846154,807.4725274725275,0.046265,-0.024963,0.960449,-4.530945,-30.482941,28.755798,386813.186813,151963589.743590,90732673.992674,78.959190,1,2,1,2,2,95.000000
2025-11-11 09:21:21.267,,,,,,,,,,,,,,,,,,,,,,,,,,,,,,,,,,,,,,,,,,/muse/elements/blink
2025-11-11 09:21:21.741,,,,,,,,,,,,,,,,,,,,,,,,,,,,,,,,,,,,,,,,,,/muse/elements/blink
2025-11-11 09:21:22.022,1.000557689511437,0.3281712106311927,0,0,1.223562187371409,-0.6365389171179202,0,0,1.107847969947154,-0.3507583347780547,0,0,0.6661921374038863,0.01843242385914401,0,0,0.1372231398870337,-0.3342671561735717,0,0,870.7326007326008,787.7289377289378,700.2930402930403,752.2710622710623,838.0952380952381,0.302490,-0.068176,0.880371,-2.684174,22.153778,1.233673,415824.175824,152733992.673993,94212380.952381,78.959190,1,2,1,2,2,95.000000
2025-11-11 09:21:22.259,,,,,,,,,,,,,,,,,,,,,,,,,,,,,,,,,,,,,,,,,,/muse/elements/blink
2025-11-11 09:21:22.957,,,,,,,,,,,,,,,,,,,,,,,,,,,,,,,,,,,,,,,,,,/muse/elements/blink
2025-11-11 09:21:23.029,1.000557689511437,0.3281712106311927,0,0,1.223562187371409,-0.6365389171179202,0,0,1.107847969947154,-0.3507583347780547,0,0,0.6661921374038863,0.01843242385914401,0,0,0.1372231398870337,-0.3342671561735717,0,0,794.1758241758242,786.1172161172161,895.3113553113553,810.6959706959707,706.3369963369963,0.274353,0.217346,0.892456,-30.550232,-11.813354,-34.535370,316703.296703,152667106.227106,94676556.776557,78.959190,1,2,4,2,2,95.000000
2025-11-11 09:21:23.063,,,,,,,,,,,,,,,,,,,,,,,,,,,,,,,,,,,,,,,,,,/muse/elements/jaw_clench
2025-11-11 09:21:24.023,1.000557689511437,0.3281712106311927,0,0,1.223562187371409,-0.6365389171179202,0,0,1.107847969947154,-0.3507583347780547,0,0,0.6661921374038863,0.01843242385914401,0,0,0.1372231398870337,-0.3342671561735717,0,0,788.5347985347986,779.6703296703297,940.4395604395605,821.1721611721612,749.8534798534798,0.389221,0.062195,1.121582,-28.710938,0.852356,-62.722931,336043.956044,152286739.926740,93936776.556777,78.959190,1,2,1,2,2,95.000000
2025-11-11 09:21:25.022,1.000557689511437,0.3281712106311927,0,1.346070873126624,1.223562187371409,-0.6365389171179202,0,1.147243780943325,1.107847969947154,-0.3507583347780547,0,1.267403363115789,0.6661921374038863,0.01843242385914401,0,1.04761998885764,0.1372231398870337,-0.3342671561735717,0,0.3051054499085764,765.9706959706959,745.8241758241759,814.3223443223443,774.0293040293041,993.6263736263736,0.510315,0.050293,0.886719,-17.465820,-0.007477,-32.725983,336043.956044,152163443.223443,93586227.106227,78.959190,1,1,1,2,1,95.000000
2025-11-11 09:21:25.209,,,,,,,,,,,,,,,,,,,,,,,,,,,,,,,,,,,,,,,,,,/muse/elements/blink
2025-11-11 09:21:25.597,,,,,,,,,,,,,,,,,,,,,,,,,,,,,,,,,,,,,,,,,,/muse/elements/jaw_clench
2025-11-11 09:21:25.745,,,,,,,,,,,,,,,,,,,,,,,,,,,,,,,,,,,,,,,,,,/muse/elements/blink
2025-11-11 09:21:26.024,1.000557689511437,0.3281712106311927,0,1.374292705159547,1.223562187371409,-0.6365389171179202,0,1.107250828652308,1.107847969947154,-0.3507583347780547,0,1.153620801631661,0.6661921374038863,0.01843242385914401,0,1.039169352874848,0.1372231398870337,-0.3342671561735717,0,0.2092246795731575,934.3956043956044,831.2454212454213,69.3040293040293,944.0659340659341,777.6556776556777,0.101685,0.146118,1.001953,-5.802002,-27.230530,-110.753937,311062.271062,152024029.304029,94932014.652015,78.959190,1,1,1,2,1,95.000000
2025-11-11 09:21:26.109,,,,,,,,,,,,,,,,,,,,,,,,,,,,,,,,,,,,,,,,,,/muse/elements/blink
2025-11-11 09:21:26.648,,,,,,,,,,,,,,,,,,,,,,,,,,,,,,,,,,,,,,,,,,/muse/elements/jaw_clench
2025-11-11 09:21:27.023,1.000557689511437,0.3281712106311927,0,1.350924260720539,1.223562187371409,-0.6365389171179202,0,1.152286327938885,1.107847969947154,-0.3507583347780547,0,1.037516905805366,0.6661921374038863,0.01843242385914401,0,0.9187992974579983,0.1372231398870337,-0.3342671561735717,0,0.213146055812157,811.5018315018315,778.4615384615385,661.2087912087912,816.3369963369963,1133.040293040293,0.250793,0.196838,0.798584,-17.406006,20.778046,-46.759949,323150.183150,155582710.622711,99450476.190476,78.959190,1,1,1,2,1,95.000000
2025-11-11 09:21:27.379,,,,,,,,,,,,,,,,,,,,,,,,,,,,,,,,,,,,,,,,,,/muse/elements/blink
2025-11-11 09:21:27.941,,,,,,,,,,,,,,,,,,,,,,,,,,,,,,,,,,,,,,,,,,/muse/elements/blink
2025-11-11 09:21:28.023,1.000557689511437,0.3281712106311927,0,1.350924260720539,1.223562187371409,-0.6365389171179202,0,1.152286327938885,1.107847969947154,-0.3507583347780547,0,1.037516905805366,0.6661921374038863,0.01843242385914401,0,0.9187992974579983,0.1372231398870337,-0.3342671561735717,0,0.213146055812157,792.967032967033,775.2380952380953,1058.095238095238,785.7142857142858,760.3296703296703,0.396484,-0.017029,0.961487,-1.622467,-11.327362,0.792542,349743.589744,156796336.996337,101922051.282051,78.959190,1,2,1,2,2,95.000000
2025-11-11 09:21:28.263,,,,,,,,,,,,,,,,,,,,,,,,,,,,,,,,,,,,,,,,,,/muse/elements/blink
2025-11-11 09:21:29.028,1.000557689511437,1.039909349312457,0,1.350924260720539,1.223562187371409,1.098968905529551,0,1.152286327938885,1.107847969947154,0.7562907753252569,0,1.037516905805366,0.6661921374038863,0.8384571156288955,0,0.9187992974579983,0.1372231398870337,0.6180318140255229,0,0.213146055812157,791.3553113553114,820.3663003663004,779.2673992673992,802.2344322344322,543.5531135531136,0.009338,0.104370,0.941895,7.977753,10.482483,45.436554,413406.593407,156377289.377289,100212820.512821,78.959190,1,2,1,1,2,95.000000
2025-11-11 09:21:29.062,,,,,,,,,,,,,,,,,,,,,,,,,,,,,,,,,,,,,,,,,,/muse/elements/blink
2025-11-11 09:21:29.769,,,,,,,,,,,,,,,,,,,,,,,,,,,,,,,,,,,,,,,,,,/muse/elements/blink
2025-11-11 09:21:30.023,1.000557689511437,1.039909349312457,0,1.350924260720539,1.223562187371409,1.098968905529551,0,1.152286327938885,1.107847969947154,0.7562907753252569,0,1.037516905805366,0.6661921374038863,0.8384571156288955,0,0.9187992974579983,0.1372231398870337,0.6180318140255229,0,0.213146055812157,736.959706959707,762.3443223443223,1052.454212454212,718.8278388278388,699.4871794871796,0.436707,0.109436,0.831665,19.335022,0.792542,31.851196,774432.234432,157216996.336996,103939120.879121,78.959190,1,2,1,2,2,95.000000
2025-11-11 09:21:30.462,,,,,,,,,,,,,,,,,,,,,,,,,,,,,,,,,,,,,,,,,,/muse/elements/blink
2025-11-11 09:21:31.030,1.000557689511437,1.039909349312457,0,1.350924260720539,1.223562187371409,1.098968905529551,0,1.152286327938885,1.107847969947154,0.7562907753252569,0,1.037516905805366,0.6661921374038863,0.8384571156288955,0,0.9187992974579983,0.1372231398870337,0.6180318140255229,0,0.213146055812157,850.5860805860806,782.893772893773,421.4652014652015,820.3663003663004,753.0769230769231,0.074829,-0.039246,0.921387,-4.074860,-26.452942,72.637177,329597.069597,155940512.820513,101436923.076923,78.959190,1,2,1,2,2,95.000000
2025-11-11 09:21:31.925,,,,,,,,,,,,,,,,,,,,,,,,,,,,,,,,,,,,,,,,,,/muse/elements/blink
2025-11-11 09:21:32.023,1.000557689511437,1.039909349312457,0,1.350924260720539,1.223562187371409,1.098968905529551,0,1.152286327938885,1.107847969947154,0.7562907753252569,0,1.037516905805366,0.6661921374038863,0.8384571156288955,0,0.9187992974579983,0.1372231398870337,0.6180318140255229,0,0.213146055812157,814.3223443223443,796.996336996337,963.4065934065934,807.4725274725275,610.8424908424909,0.257751,0.136719,0.917358,7.102966,-11.566620,54.894714,338461.538462,160798241.758242,108608278.388278,78.959190,1,2,1,2,2,95.000000
2025-11-11 09:21:33.023,1.000557689511437,1.039909349312457,0,1.350924260720539,1.223562187371409,1.098968905529551,0,1.152286327938885,1.107847969947154,0.7562907753252569,0,1.037516905805366,0.6661921374038863,0.8384571156288955,0,0.9187992974579983,0.1372231398870337,0.6180318140255229,0,0.213146055812157,794.5787545787546,804.6520146520147,848.1684981684982,749.8534798534798,907.3992673992674,0.335327,0.059509,1.096985,27.858582,9.256287,11.932983,420659.340659,163272234.432234,108605054.945055,71.941666,1,2,1,2,2,95.000000
2025-11-11 09:21:33.865,,,,,,,,,,,,,,,,,,,,,,,,,,,,,,,,,,,,,,,,,,/muse/elements/blink
2025-11-11 09:21:34.023,1.40215027872861,1.039909349312457,0,1.444584912442098,1.315336428192826,1.098968905529551,0,1.032556327042454,1.196118172699075,0.7562907753252569,0,1.320324677508776,0.9012547432725424,0.8384571156288955,0,1.161864234120527,0.4353177928012308,0.6180318140255229,0,1.35876584360694,846.5567765567765,839.7069597069598,633.4065934065934,831.2454212454213,696.6666666666667,-0.091492,-0.046509,0.970459,-2.370148,35.455017,23.925781,376336.996337,162130329.670330,104730476.190476,71.941666,1,1,1,2,1,95.000000
2025-11-11 09:21:34.145,,,,,,,,,,,,,,,,,,,,,,,,,,,,,,,,,,,,,,,,,,/muse/elements/blink
2025-11-11 09:21:34.464,,,,,,,,,,,,,,,,,,,,,,,,,,,,,,,,,,,,,,,,,,/muse/elements/blink
2025-11-11 09:21:35.023,1.40215027872861,1.039909349312457,0,1.454340750950816,1.315336428192826,1.098968905529551,0,1.051001035694815,1.196118172699075,0.7562907753252569,0,1.215193819801091,0.9012547432725424,0.8384571156288955,0,1.229492112362061,0.4353177928012308,0.6180318140255229,0,1.453092692788891,722.0512820512821,795.3846153846154,1053.663003663004,688.2051282051282,487.5457875457876,-0.039307,0.137634,0.944580,-12.493744,6.811371,-10.751648,369084.249084,161836190.476190,106739487.179487,71.941666,1,1,1,2,1,95.000000
2025-11-11 09:21:35.136,,,,,,,,,,,,,,,,,,,,,,,,,,,,,,,,,,,,,,,,,,/muse/elements/blink
2025-11-11 09:21:36.028,1.40215027872861,1.039909349312457,0,1.454340750950816,1.315336428192826,1.098968905529551,0,1.051001035694815,1.196118172699075,0.7562907753252569,0,1.215193819801091,0.9012547432725424,0.8384571156288955,0,1.229492112362061,0.4353177928012308,0.6180318140255229,0,1.453092692788891,789.3406593406594,772.8205128205128,704.7252747252747,813.919413919414,1131.025641025641,0.065796,0.020874,0.994934,-0.291595,-9.211426,-60.188293,321538.461538,156959926.739927,96567912.087912,71.941666,1,1,1,2,1,95.000000
2025-11-11 09:21:36.967,,,,,,,,,,,,,,,,,,,,,,,,,,,,,,,,,,,,,,,,,,/muse/elements/blink
2025-11-11 09:21:37.023,1.40215027872861,1.039909349312457,0,1.454340750950816,1.315336428192826,1.098968905529551,0,1.051001035694815,1.196118172699075,0.7562907753252569,0,1.215193819801091,0.9012547432725424,0.8384571156288955,0,1.229492112362061,0.4353177928012308,0.6180318140255229,0,1.453092692788891,561.6849816849817,847.7655677655678,846.1538461538462,535.8974358974359,1019.413919413919,0.386353,-0.045837,0.789978,-17.854614,7.581482,-24.262238,335238.095238,156719780.219780,95734652.014652,71.941666,1,2,1,2,2,95.000000
2025-11-11 09:21:37.161,,,,,,,,,,,,,,,,,,,,,,,,,,,,,,,,,,,,,,,,,,/muse/elements/blink
2025-11-11 09:21:38.029,1.40215027872861,1.039909349312457,0,1.454340750950816,1.315336428192826,1.098968905529551,0,1.051001035694815,1.196118172699075,0.7562907753252569,0,1.215193819801091,0.9012547432725424,0.8384571156288955,0,1.229492112362061,0.4353177928012308,0.6180318140255229,0,1.453092692788891,804.2490842490843,752.6739926739926,961.3919413919414,819.5604395604396,636.6300366300367,0.439880,0.213196,0.833984,-24.606171,-29.099731,-58.872375,344102.564103,156353919.413919,95925641.025641,71.941666,1,2,1,2,2,95.000000
2025-11-11 09:21:38.814,,,,,,,,,,,,,,,,,,,,,,,,,,,,,,,,,,,,,,,,,,/muse/elements/blink
2025-11-11 09:21:39.023,1.40215027872861,1.039909349312457,0,1.454340750950816,1.315336428192826,1.098968905529551,0,1.051001035694815,1.196118172699075,0.7562907753252569,0,1.215193819801091,0.9012547432725424,0.8384571156288955,0,1.229492112362061,0.4353177928012308,0.6180318140255229,0,1.453092692788891,783.6996336996338,794.1758241758242,691.025641025641,788.9377289377289,1138.681318681319,0.311462,0.154175,0.889404,-17.084503,-7.132874,-59.874268,321538.461538,156189523.809524,95472747.252747,71.941666,1,2,1,2,2,95.000000
2025-11-11 09:21:39.742,,,,,,,,,,,,,,,,,,,,,,,,,,,,,,,,,,,,,,,,,,/muse/elements/blink
2025-11-11 09:21:40.034,1.40215027872861,1.039909349312457,0,1.454340750950816,1.315336428192826,1.098968905529551,0,1.051001035694815,1.196118172699075,0.7562907753252569,0,1.215193819801091,0.9012547432725424,0.8384571156288955,0,1.229492112362061,0.4353177928012308,0.6180318140255229,0,1.453092692788891,814.3223443223443,794.1758241758242,750.2564102564103,805.8608058608058,946.8864468864469,0.263062,0.058533,1.258850,-17.757416,-9.645081,-17.398529,320732.600733,155428791.208791,92863369.963370,89.442833,1,2,1,2,2,95.000000
2025-11-11 09:21:41.023,1.40215027872861,1.039909349312457,0,1.454340750950816,1.315336428192826,1.098968905529551,0,1.051001035694815,1.196118172699075,0.7562907753252569,0,1.215193819801091,0.9012547432725424,0.8384571156288955,0,1.229492112362061,0.4353177928012308,0.6180318140255229,0,1.453092692788891,590.6959706959707,839.3040293040293,973.4798534798535,611.6483516483516,651.5384615384615,0.254333,0.133057,0.925354,-17.944336,16.688232,-20.449066,344102.564103,155226520.146520,94774065.934066,118.495979,1,2,1,2,2,95.000000
2025-11-11 09:21:41.142,,,,,,,,,,,,,,,,,,,,,,,,,,,,,,,,,,,,,,,,,,/muse/elements/blink
2025-11-11 09:21:42.023,1.40215027872861,1.039909349312457,0,1.454340750950816,1.315336428192826,1.098968905529551,0,1.051001035694815,1.196118172699075,0.7562907753252569,0,1.215193819801091,0.9012547432725424,0.8384571156288955,0,1.229492112362061,0.4353177928012308,0.6180318140255229,0,1.453092692788891,775.6410256410256,799.0109890109891,727.6923076923077,792.1611721611722,1070.989010989011,0.128540,-0.092896,0.985107,11.454468,1.203766,18.677063,391648.351648,155475531.135531,94961025.641026,126.641289,1,2,1,2,2,95.000000
2025-11-11 09:21:43.023,1.40215027872861,1.039909349312457,0,1.454340750950816,1.315336428192826,1.098968905529551,0,1.051001035694815,1.196118172699075,0.7562907753252569,0,1.215193819801091,0.9012547432725424,0.8384571156288955,0,1.229492112362061,0.4353177928012308,0.6180318140255229,0,1.453092692788891,828.8278388278388,892.0879120879121,1092.747252747253,832.4542124542124,724.4688644688645,0.004517,0.133911,1.240601,11.185303,24.516449,42.498169,746227.106227,155533553.113553,96144029.304029,130.860764,1,2,1,2,2,95.000000
2025-11-11 09:21:43.074,,,,,,,,,,,,,,,,,,,,,,,,,,,,,,,,,,,,,,,,,,/muse/elements/blink
2025-11-11 09:21:44.031,1.40215027872861,1.039909349312457,0,1.454340750950816,1.315336428192826,1.098968905529551,0,1.051001035694815,1.196118172699075,0.7562907753252569,0,1.215193819801091,0.9012547432725424,0.8384571156288955,0,1.229492112362061,0.4353177928012308,0.6180318140255229,0,1.453092692788891,835.6776556776557,788.1318681318681,517.7655677655678,823.992673992674,679.7435897435897,-0.129578,0.174500,1.032043,-5.286102,2.063599,23.140717,1256336.996337,155199120.879121,93675677.655678,146.805466,1,2,1,2,2,95.000000
2025-11-11 09:21:45.028,1.262690376329549,1.039909349312457,0,2.008744987715163,0.8143475495358558,1.098968905529551,0,1.616569282725892,0.9546543196334883,0.7562907753252569,0,1.459058792625178,0.7870971830004089,0.8384571156288955,0,0.9624506932734138,0.7501117946123765,0.6180318140255229,0,0.8741335388036516,795.3846153846154,739.7802197802198,867.5091575091575,794.5787545787546,979.92673992674,0.150330,-0.011292,0.902039,4.358978,0.643005,60.644379,338461.538462,156379706.959707,99817948.717949,146.805466,1,1,1,2,1,95.000000
2025-11-11 09:21:45.964,,,,,,,,,,,,,,,,,,,,,,,,,,,,,,,,,,,,,,,,,,/muse/elements/blink
2025-11-11 09:21:46.022,1.173500511356164,1.039909349312457,0,2.008744987715163,0.7472696729799748,1.098968905529551,0,1.616569282725892,0.961163338992811,0.7562907753252569,0,1.459058792625178,0.8085426782435784,0.8384571156288955,0,0.9624506932734138,0.7023405082860544,0.6180318140255229,0,0.8741335388036516,806.6666666666667,790.5494505494506,612.8571428571429,787.3260073260074,912.6373626373627,0.180969,0.137695,0.918701,9.734802,16.561127,50.117035,614065.934066,157818168.498168,102651355.311355,146.805466,1,1,1,2,1,95.000000
2025-11-11 09:21:47.032,0.4847427678588557,1.039909349312457,0,2.008744987715163,0.3211017387065577,1.098968905529551,0,1.616569282725892,0.6862613844408356,0.7562907753252569,0,1.459058792625178,0.7822891088240024,0.8384571156288955,0,0.9624506932734138,0.6955004963838489,0.6180318140255229,0,0.8741335388036516,775.2380952380953,798.6080586080586,1045.604395604396,805.4578754578755,586.2637362637363,0.094482,0.264343,0.998108,12.747955,11.207733,4.912262,410183.150183,157678754.578755,101785054.945055,146.805466,1,1,1,2,1,95.000000
2025-11-11 09:21:47.151,,,,,,,,,,,,,,,,,,,,,,,,,,,,,,,,,,,,,,,,,,/muse/elements/blink
2025-11-11 09:21:48.024,0.4847427678588557,1.02603652638779,0,1.51862130660895,0.3211017387065577,0.8410914009821404,0,1.952578710116654,0.6862613844408356,0.7738050044679903,0,1.438402741525451,0.7822891088240024,0.5394396450623534,0,1.301149807348885,0.6955004963838489,0.2440377006113586,0,0.9669478513470872,799.4139194139194,817.1428571428571,830.8424908424909,826.8131868131868,990.4029304029305,-0.041809,0.019287,0.985046,-6.445007,-13.136749,-20.867767,362637.362637,156452234.432234,96447838.827839,146.805466,1,1,1,2,1,95.000000
2025-11-11 09:21:48.897,,,,,,,,,,,,,,,,,,,,,,,,,,,,,,,,,,,,,,,,,,/muse/elements/blink
2025-11-11 09:21:49.023,0.4847427678588557,1.248085526443971,0,1.500817856991809,0.3211017387065577,0.8983548605605327,0,1.935960471399014,0.6862613844408356,0.8023394422362548,0,1.436366756033737,0.7822891088240024,0.4653240825609694,0,1.269625904610055,0.6955004963838489,-0.0962722246628077,0,0.883182065387236,841.3186813186813,776.0439560439561,909.8168498168499,815.934065934066,692.2344322344322,0.226562,0.125610,0.968018,-16.179810,0.396271,-4.650574,335238.095238,155714871.794872,95788644.688645,144.529709,1,1,1,2,1,95.000000
2025-11-11 09:21:50.026,0.4847427678588557,1.248085526443971,0,1.500817856991809,0.3211017387065577,0.8983548605605327,0,1.935960471399014,0.6862613844408356,0.8023394422362548,0,1.436366756033737,0.7822891088240024,0.4653240825609694,0,1.269625904610055,0.6955004963838489,-0.0962722246628077,0,0.883182065387236,811.0989010989011,782.4908424908425,921.9047619047619,796.1904761904763,601.5750915750916,0.422791,0.221558,0.821777,-14.318085,-3.274841,-45.055237,346520.146520,155483589.743590,96650109.890110,143.329453,1,1,1,2,1,95.000000
2025-11-11 09:21:50.295,,,,,,,,,,,,,,,,,,,,,,,,,,,,,,,,,,,,,,,,,,/muse/elements/blink
2025-11-11 09:21:51.023,0.4847427678588557,1.248085526443971,0,1.500817856991809,0.3211017387065577,0.8983548605605327,0,1.935960471399014,0.6862613844408356,0.8023394422362548,0,1.436366756033737,0.7822891088240024,0.4653240825609694,0,1.269625904610055,0.6955004963838489,-0.0962722246628077,0,0.883182065387236,781.2820512820513,798.6080586080586,895.7142857142858,807.8754578754579,705.1282051282052,0.368896,0.163391,0.922058,-18.901367,-1.136475,-52.135773,341684.981685,155350622.710623,97263369.963370,143.329453,1,2,1,2,2,95.000000
2025-11-11 09:21:52.023,0.8498534133544654,1.248085526443971,0,1.500817856991809,0.7531602195726075,0.8983548605605327,0,1.935960471399014,1.31492470001411,0.8023394422362548,0,1.436366756033737,1.36220993353674,0.4653240825609694,0,1.269625904610055,1.246079634292706,-0.0962722246628077,0,0.883182065387236,779.6703296703297,795.3846153846154,870.7326007326008,797.3992673992674,758.7179487179487,0.248352,0.140503,0.897156,-6.116028,8.822632,-19.492035,326373.626374,155643956.043956,96565494.505495,129.446060,1,1,1,2,1,95.000000
2025-11-11 09:21:52.307,,,,,,,,,,,,,,,,,,,,,,,,,,,,,,,,,,,,,,,,,,/muse/elements/blink
2025-11-11 09:21:52.823,,,,,,,,,,,,,,,,,,,,,,,,,,,,,,,,,,,,,,,,,,/muse/elements/blink
2025-11-11 09:21:53.027,0.8448914567471059,1.248085526443971,0,1.500817856991809,0.8018561632887607,0.8983548605605327,0,1.935960471399014,1.288202611625497,0.8023394422362548,0,1.436366756033737,1.390060345442793,0.4653240825609694,0,1.269625904610055,1.275605376783996,-0.0962722246628077,0,0.883182065387236,826.4102564102565,805.0549450549451,668.4615384615385,830.8424908424909,666.0439560439561,-0.104553,-0.007935,1.040955,1.869202,-23.918304,-57.212524,321538.461538,155643150.183150,94541172.161172,119.835640,1,1,1,2,1,95.000000
2025-11-11 09:21:54.023,0.82028997946117,1.248085526443971,0,1.500817856991809,0.8620939340402145,0.8983548605605327,0,1.935960471399014,1.183427134277325,0.8023394422362548,0,1.436366756033737,1.420447488720272,0.4653240825609694,0,1.269625904610055,1.31739657491844,-0.0962722246628077,0,0.883182065387236,588.6813186813187,768.7912087912088,1082.673992673993,557.6556776556777,845.7509157509157,0.276062,-0.149109,0.832092,-14.146118,-0.134583,1.271057,348131.868132,156418388.278388,99984761.904762,121.302597,1,1,1,2,1,95.000000
2025-11-11 09:21:54.134,,,,,,,,,,,,,,,,,,,,,,,,,,,,,,,,,,,,,,,,,,/muse/elements/blink
2025-11-11 09:21:54.758,,,,,,,,,,,,,,,,,,,,,,,,,,,,,,,,,,,,,,,,,,/muse/elements/blink
2025-11-11 09:21:55.023,0.82028997946117,1.248085526443971,0,1.500817856991809,0.8620939340402145,0.8983548605605327,0,1.935960471399014,1.183427134277325,0.8023394422362548,0,1.436366756033737,1.420447488720272,0.4653240825609694,0,1.269625904610055,1.31739657491844,-0.0962722246628077,0,0.883182065387236,810.2930402930403,828.4249084249085,583.040293040293,792.1611721611722,933.5897435897436,-0.093933,0.079834,0.922058,-8.620758,2.729034,5.996399,399706.959707,156208864.468864,97786373.626374,117.410309,1,2,1,2,2,95.000000
2025-11-11 09:21:56.023,0.82028997946117,1.248085526443971,0,1.500817856991809,0.8620939340402145,0.8983548605605327,0,1.935960471399014,1.183427134277325,0.8023394422362548,0,1.436366756033737,1.420447488720272,0.4653240825609694,0,1.269625904610055,1.31739657491844,-0.0962722246628077,0,0.883182065387236,774.8351648351648,795.7875457875458,859.4505494505495,772.014652014652,697.8754578754579,-0.120178,-0.006897,0.930664,5.996399,-16.112518,28.269806,653553.113553,155875238.095238,96988571.428571,117.410309,1,2,1,2,2,95.000000
2025-11-11 09:21:56.418,,,,,,,,,,,,,,,,,,,,,,,,,,,,,,,,,,,,,,,,,,/muse/elements/blink
2025-11-11 09:21:57.023,0.82028997946117,1.248085526443971,0,1.500817856991809,0.8620939340402145,0.8983548605605327,0,1.935960471399014,1.183427134277325,0.8023394422362548,0,1.436366756033737,1.420447488720272,0.4653240825609694,0,1.269625904610055,1.31739657491844,-0.0962722246628077,0,0.883182065387236,784.1025641025641,818.3516483516484,1026.263736263736,792.1611721611722,907.3992673992674,-0.499023,0.287354,1.908752,-4.067383,-2.362671,58.124695,544761.904762,155447326.007326,95346227.106227,115.182724,1,2,1,2,2,95.000000
2025-11-11 09:21:57.434,,,,,,,,,,,,,,,,,,,,,,,,,,,,,,,,,,,,,,,,,,/muse/elements/blink
2025-11-11 09:21:57.629,,,,,,,,,,,,,,,,,,,,,,,,,,,,,,,,,,,,,,,,,,/muse/elements/jaw_clench
2025-11-11 09:21:58.026,0.82028997946117,1.248085526443971,0,1.500817856991809,0.8620939340402145,0.8983548605605327,0,1.935960471399014,1.183427134277325,0.8023394422362548,0,1.436366756033737,1.420447488720272,0.4653240825609694,0,1.269625904610055,1.31739657491844,-0.0962722246628077,0,0.883182065387236,799.4139194139194,783.6996336996338,992.4175824175825,780.8791208791209,679.7435897435897,0.444702,-0.006531,0.858276,6.594543,-2.093506,46.677704,334432.234432,161981245.421245,108652600.732601,115.182724,1,2,1,2,2,95.000000
2025-11-11 09:21:58.749,,,,,,,,,,,,,,,,,,,,,,,,,,,,,,,,,,,,,,,,,,/muse/elements/blink
2025-11-11 09:21:59.023,0.82028997946117,1.248085526443971,0,1.500817856991809,0.8620939340402145,0.8983548605605327,0,1.935960471399014,1.183427134277325,0.8023394422362548,0,1.436366756033737,1.420447488720272,0.4653240825609694,0,1.269625904610055,1.31739657491844,-0.0962722246628077,0,0.883182065387236,803.8461538461539,785.3113553113553,924.7252747252747,825.2014652014652,598.3516483516484,0.247620,-0.081726,1.000244,20.606079,7.835693,18.789215,539926.739927,161337362.637363,103866593.406593,115.182724,1,2,1,2,2,95.000000
2025-11-11 09:21:59.630,,,,,,,,,,,,,,,,,,,,,,,,,,,,,,,,,,,,,,,,,,/muse/elements/blink
2025-11-11 09:21:59.959,,,,,,,,,,,,,,,,,,,,,,,,,,,,,,,,,,,,,,,,,,/muse/elements/blink
2025-11-11 09:22:00.034,0.82028997946117,1.248085526443971,0,1.500817856991809,0.8620939340402145,0.8983548605605327,0,1.935960471399014,1.183427134277325,0.8023394422362548,0,1.436366756033737,1.420447488720272,0.4653240825609694,0,1.269625904610055,1.31739657491844,-0.0962722246628077,0,0.883182065387236,849.3772893772895,776.0439560439561,903.3699633699634,857.4358974358975,745.8241758241759,0.462402,-0.039490,0.982666,7.813263,-26.505280,12.261963,505274.725275,158702197.802198,100581904.761905,116.906189,1,2,1,2,2,95.000000
2025-11-11 09:22:01.023,0.82028997946117,1.248085526443971,0,1.71315836844929,0.8620939340402145,0.8983548605605327,0,1.613455367495058,1.183427134277325,0.8023394422362548,0,1.917369988732444,1.420447488720272,0.4653240825609694,0,1.287356250627916,1.31739657491844,-0.0962722246628077,0,0.9393870524129013,794.981684981685,790.5494505494506,822.7838827838829,806.2637362637363,754.6886446886447,0.372131,0.181396,0.848633,-28.352051,3.469238,-53.541412,329597.069597,156675457.875458,97451941.391941,116.906189,1,1,1,2,1,95.000000
2025-11-11 09:22:02.023,0.9297187203079199,1.248085526443971,0,1.75648249162668,1.246807336903638,0.8983548605605327,0,1.503410986555402,1.553790216489072,0.8023394422362548,0,1.785978240776585,1.502130908749006,0.4653240825609694,0,1.280528172093454,1.336129876641682,-0.0962722246628077,0,0.9554226045640056,812.3076923076924,811.0989010989011,921.5018315018315,834.8717948717949,652.7472527472528,0.404602,0.253113,0.831421,-21.914520,-33.683014,-72.293243,338461.538462,155722124.542125,94877216.117216,132.488022,1,1,1,2,1,95.000000
2025-11-11 09:22:02.668,,,,,,,,,,,,,,,,,,,,,,,,,,,,,,,,,,,,,,,,,,/muse/elements/blink
2025-11-11 09:22:03.023,0.7637775438353305,1.248085526443971,0,1.75648249162668,1.402568451845683,0.8983548605605327,0,1.503410986555402,1.389590772104163,0.8023394422362548,0,1.785978240776585,1.346369233945707,0.4653240825609694,0,1.280528172093454,1.424814174609366,-0.0962722246628077,0,0.9554226045640056,829.6336996336996,823.1868131868132,887.2527472527473,823.1868131868132,750.6593406593407,0.442871,0.062805,0.881714,-33.884888,0.201874,-78.177490,328791.208791,155441684.981685,95260805.860806,140.567780,1,1,1,2,1,95.000000
2025-11-11 09:22:03.186,,,,,,,,,,,,,,,,,,,,,,,,,,,,,,,,,,,,,,,,,,/muse/elements/blink
2025-11-11 09:22:04.023,0.7637775438353305,1.248085526443971,0,1.75648249162668,1.402568451845683,0.8983548605605327,0,1.503410986555402,1.389590772104163,0.8023394422362548,0,1.785978240776585,1.346369233945707,0.4653240825609694,0,1.280528172093454,1.424814174609366,-0.0962722246628077,0,0.9554226045640056,831.6483516483516,801.4285714285714,890.0732600732601,842.1245421245421,807.4725274725275,0.439270,-0.042053,0.898865,-19.566803,-3.461761,-50.588074,320732.600733,155506153.846154,94568571.428571,137.677719,1,1,1,2,1,95.000000
2025-11-11 09:22:04.973,,,,,,,,,,,,,,,,,,,,,,,,,,,,,,,,,,,,,,,,,,/muse/elements/blink
2025-11-11 09:22:05.029,0.7637775438353305,1.248085526443971,0,1.75648249162668,1.402568451845683,0.8983548605605327,0,1.503410986555402,1.389590772104163,0.8023394422362548,0,1.785978240776585,1.346369233945707,0.4653240825609694,0,1.280528172093454,1.424814174609366,-0.0962722246628077,0,0.9554226045640056,815.1282051282052,785.3113553113553,1010.549450549451,835.2747252747253,711.5750915750916,0.200928,-0.029236,0.870483,-16.217194,20.890198,-10.609589,332820.512821,155809963.369963,93462124.542125,135.294266,1,2,1,2,2,95.000000
2025-11-11 09:22:06.022,0.7637775438353305,1.248085526443971,0,1.75648249162668,1.402568451845683,0.8983548605605327,0,1.503410986555402,1.389590772104163,0.8023394422362548,0,1.785978240776585,1.346369233945707,0.4653240825609694,0,1.280528172093454,1.424814174609366,-0.0962722246628077,0,0.9554226045640056,790.952380952381,767.5824175824176,784.5054945054945,784.9084249084249,814.7252747252747,0.327881,-0.070862,0.987000,-0.949554,-3.013153,18.355560,374725.274725,155962271.062271,93538681.318681,133.177933,1,2,1,2,2,95.000000
2025-11-11 09:22:06.265,,,,,,,,,,,,,,,,,,,,,,,,,,,,,,,,,,,,,,,,,,/muse/elements/blink
2025-11-11 09:22:07.022,0.7637775438353305,1.248085526443971,0,1.75648249162668,1.402568451845683,0.8983548605605327,0,1.503410986555402,1.389590772104163,0.8023394422362548,0,1.785978240776585,1.346369233945707,0.4653240825609694,0,1.280528172093454,1.424814174609366,-0.0962722246628077,0,0.9554226045640056,802.6373626373627,803.040293040293,970.6593406593407,764.7619047619048,711.5750915750916,0.169922,-0.103210,0.946472,22.206116,-14.946136,66.580963,716410.256410,156140366.300366,92847252.747253,133.177933,1,2,1,2,2,95.000000
2025-11-11 09:22:07.858,,,,,,,,,,,,,,,,,,,,,,,,,,,,,,,,,,,,,,,,,,/muse/elements/blink
2025-11-11 09:22:08.023,0.7637775438353305,1.248085526443971,0,1.75648249162668,1.402568451845683,0.8983548605605327,0,1.503410986555402,1.389590772104163,0.8023394422362548,0,1.785978240776585,1.346369233945707,0.4653240825609694,0,1.280528172093454,1.424814174609366,-0.0962722246628077,0,0.9554226045640056,768.3882783882784,809.0842490842491,951.3186813186813,778.8644688644689,576.5934065934066,0.347595,0.137695,1.479248,33.391418,2.684174,74.401703,338461.538462,155908278.388278,95277728.937729,126.877342,1,2,1,2,2,95.000000
2025-11-11 09:22:08.847,,,,,,,,,,,,,,,,,,,,,,,,,,,,,,,,,,,,,,,,,,/muse/elements/blink
2025-11-11 09:22:09.023,0.7637775438353305,1.248085526443971,0,1.75648249162668,1.402568451845683,0.8983548605605327,0,1.503410986555402,1.389590772104163,0.8023394422362548,0,1.785978240776585,1.346369233945707,0.4653240825609694,0,1.280528172093454,1.424814174609366,-0.0962722246628077,0,0.9554226045640056,808.2783882783883,809.0842490842491,692.2344322344322,758.3150183150184,1001.282051282051,0.180176,0.013672,0.949585,17.286377,2.280426,71.844635,334432.234432,156045274.725275,94865934.065934,126.877342,1,2,1,2,2,95.000000
2025-11-11 09:22:09.899,,,,,,,,,,,,,,,,,,,,,,,,,,,,,,,,,,,,,,,,,,/muse/elements/blink
2025-11-11 09:22:10.023,0.7637775438353305,1.245594396885059,0,1.75648249162668,1.402568451845683,1.332732178184436,0,1.503410986555402,1.389590772104163,0.7293876432082846,0,1.785978240776585,1.346369233945707,0.2619862041867405,0,1.280528172093454,1.424814174609366,-0.2907311991028757,0,0.9554226045640056,810.6959706959707,790.952380952381,826.4102564102565,846.1538461538462,720.4395604395604,0.189270,0.026611,1.055115,24.665985,-23.245392,14.669495,482710.622711,155547252.747253,94525860.805861,123.470688,1,2,1,2,2,95.000000
2025-11-11 09:22:10.501,,,,,,,,,,,,,,,,,,,,,,,,,,,,,,,,,,,,,,,,,,/muse/elements/blink
2025-11-11 09:22:11.016,,,,,,,,,,,,,,,,,,,,,,,,,,,,,,,,,,,,,,,,,,/muse/elements/blink
2025-11-11 09:22:11.027,0.7637775438353305,1.257982824645163,0,1.75648249162668,1.402568451845683,1.108068368419587,0,1.503410986555402,1.389590772104163,0.7293876432082846,0,1.785978240776585,1.346369233945707,0.2831699507141737,0,1.280528172093454,1.424814174609366,-0.3321054226297757,0,0.9554226045640056,871.941391941392,783.6996336996338,394.4688644688645,842.1245421245421,497.6190476190476,0.574524,-0.078857,0.863403,11.753540,-24.097748,24.822998,491575.091575,155672161.172161,95703223.443223,123.470688,1,2,1,2,2,95.000000
2025-11-11 09:22:12.023,0.7637775438353305,1.293137759294562,0,1.75648249162668,1.402568451845683,1.09789973992348,0,1.503410986555402,1.389590772104163,0.7287455280990704,0,1.785978240776585,1.346369233945707,0.2944551563693855,0,1.280528172093454,1.424814174609366,-0.3366200889689825,0,0.9554226045640056,801.025641025641,804.6520146520147,792.1611721611722,784.5054945054945,740.989010989011,0.313171,0.135132,0.849976,-4.314117,-1.271057,-59.029388,326373.626374,155799487.179487,94667692.307692,123.470688,1,2,1,2,2,95.000000
2025-11-11 09:22:13.029,0.7637775438353305,1.293137759294562,0,1.75648249162668,1.402568451845683,1.09789973992348,0,1.503410986555402,1.389590772104163,0.7287455280990704,0,1.785978240776585,1.346369233945707,0.2944551563693855,0,1.280528172093454,1.424814174609366,-0.3366200889689825,0,0.9554226045640056,794.981684981685,801.025641025641,818.3516483516484,781.2820512820513,759.5238095238095,0.337769,0.297729,0.850342,-21.406097,-13.174133,-57.892914,333626.373626,156021098.901099,95392967.032967,123.470688,1,2,1,2,2,95.000000
2025-11-11 09:22:14.023,0.7499117614667484,1.293137759294562,0,1.75648249162668,0.6724521759041484,1.09789973992348,0,1.503410986555402,1.202695745259526,0.7287455280990704,0,1.785978240776585,1.161306817160334,0.2944551563693855,0,1.280528172093454,0.9493571788531938,-0.3366200889689825,0,0.9554226045640056,807.8754578754579,815.934065934066,960.989010989011,794.1758241758242,593.1135531135532,0.263611,0.135620,0.922974,-24.179993,-6.415100,-60.584564,340073.260073,156104102.564103,94503296.703297,123.470688,1,1,1,2,1,95.000000
2025-11-11 09:22:14.053,,,,,,,,,,,,,,,,,,,,,,,,,,,,,,,,,,,,,,,,,,/muse/elements/blink
2025-11-11 09:22:14.679,,,,,,,,,,,,,,,,,,,,,,,,,,,,,,,,,,,,,,,,,,/muse/elements/blink
2025-11-11 09:22:15.023,1.293664264832691,1.293137759294562,0,1.385344171078216,1.14883777248814,1.09789973992348,0,1.637290239153552,1.238385543417875,0.7287455280990704,0,1.463090075527091,1.056263694263823,0.2944551563693855,0,0.8878358075234586,0.8541564250887415,-0.3366200889689825,0,0.603688895871872,780.4761904761905,760.3296703296703,978.3150183150184,815.934065934066,763.956043956044,0.151550,0.140381,0.984131,-21.406097,9.218903,-23.738861,319120.879121,156144395.604396,94786959.706960,123.470688,1,1,1,2,1,95.000000
2025-11-11 09:22:15.558,,,,,,,,,,,,,,,,,,,,,,,,,,,,,,,,,,,,,,,,,,/muse/elements/blink
2025-11-11 09:22:16.023,1.577209381103875,1.293137759294562,0,1.401166232021161,1.424089611683793,1.09789973992348,0,1.685717806815322,1.080374476825848,0.7287455280990704,0,1.369631176323515,1.029174891918023,0.2944551563693855,0,0.7739886985054262,0.6925481773265559,-0.3366200889689825,0,0.6009601815197186,807.0695970695971,807.4725274725275,892.0879120879121,801.025641025641,705.1282051282052,0.074341,0.155151,0.953674,-12.650757,-12.949829,-50.550690,319120.879121,156366813.186813,93954505.494505,121.057251,1,1,1,2,1,95.000000
2025-11-11 09:22:16.927,,,,,,,,,,,,,,,,,,,,,,,,,,,,,,,,,,,,,,,,,,/muse/elements/blink
2025-11-11 09:22:17.023,1.577209381103875,1.293137759294562,0,1.401166232021161,1.424089611683793,1.09789973992348,0,1.685717806815322,1.080374476825848,0.7287455280990704,0,1.369631176323515,1.029174891918023,0.2944551563693855,0,0.7739886985054262,0.6925481773265559,-0.3366200889689825,0,0.6009601815197186,832.4542124542124,815.934065934066,1040.3663003663,839.3040293040293,643.0769230769231,0.168274,-0.031921,0.935364,1.300964,10.916138,-5.996399,344908.424908,156559413.919414,96619487.179487,105.799721,1,1,1,2,1,95.000000
2025-11-11 09:22:17.380,,,,,,,,,,,,,,,,,,,,,,,,,,,,,,,,,,,,,,,,,,/muse/elements/blink
2025-11-11 09:22:18.023,1.577209381103875,1.293137759294562,0,1.401166232021161,1.424089611683793,1.09789973992348,0,1.685717806815322,1.080374476825848,0.7287455280990704,0,1.369631176323515,1.029174891918023,0.2944551563693855,0,0.7739886985054262,0.6925481773265559,-0.3366200889689825,0,0.6009601815197186,816.7399267399268,803.040293040293,826.4102564102565,809.8901098901099,869.5238095238095,-0.014160,0.125122,1.030945,1.502838,-1.338348,43.043976,406959.706960,156336996.336996,96458315.018315,105.799721,1,2,1,2,2,95.000000
2025-11-11 09:22:18.605,,,,,,,,,,,,,,,,,,,,,,,,,,,,,,,,,,,,,,,,,,/muse/elements/blink
2025-11-11 09:22:19.023,1.577209381103875,0.9162008155783168,0,1.401166232021161,1.424089611683793,1.030615296742403,0,1.685717806815322,1.080374476825848,0.9042723216388137,0,1.369631176323515,1.029174891918023,0.4023431303606903,0,0.7739886985054262,0.6925481773265559,-0.0783700912420128,0,0.6009601815197186,821.5750915750916,780.8791208791209,813.5164835164835,792.1611721611722,575.3846153846154,0.377380,0.129578,0.917175,10.714264,0.874786,17.787323,702710.622711,156486886.446886,97865347.985348,105.799721,1,2,1,2,2,95.000000
2025-11-11 09:22:19.359,,,,,,,,,,,,,,,,,,,,,,,,,,,,,,,,,,,,,,,,,,/muse/elements/blink
2025-11-11 09:22:19.359,,,,,,,,,,,,,,,,,,,,,,,,,,,,,,,,,,,,,,,,,,/muse/elements/jaw_clench
2025-11-11 09:22:20.023,1.577209381103875,0.8756920604555427,0,1.401166232021161,1.424089611683793,1.047969357917299,0,1.685717806815322,1.080374476825848,0.9025840649107217,0,1.369631176323515,1.029174891918023,0.3441612738523543,0,0.7739886985054262,0.6925481773265559,-0.1296038570090376,0,0.6009601815197186,767.1794871794872,763.5531135531136,1249.084249084249,779.6703296703297,609.6336996336996,-0.053833,0.093994,0.952332,-0.485992,8.987122,46.834717,319120.879121,155465054.945055,96056996.336996,104.485725,1,2,1,2,2,95.000000
2025-11-11 09:22:20.151,,,,,,,,,,,,,,,,,,,,,,,,,,,,,,,,,,,,,,,,,,/muse/elements/jaw_clench
2025-11-11 09:22:20.755,,,,,,,,,,,,,,,,,,,,,,,,,,,,,,,,,,,,,,,,,,/muse/elements/blink
2025-11-11 09:22:20.755,,,,,,,,,,,,,,,,,,,,,,,,,,,,,,,,,,,,,,,,,,/muse/elements/jaw_clench
2025-11-11 09:22:21.023,1.577209381103875,0.8756920604555427,0,1.401166232021161,1.424089611683793,1.047969357917299,0,1.685717806815322,1.080374476825848,0.9025840649107217,0,1.369631176323515,1.029174891918023,0.3441612738523543,0,0.7739886985054262,0.6925481773265559,-0.1296038570090376,0,0.6009601815197186,728.4981684981685,777.6556776556777,836.8864468864469,785.7142857142858,719.2307692307693,0.102600,0.139648,0.896729,6.871185,37.817688,77.564392,319120.879121,156596483.516484,101980879.120879,94.317017,1,2,1,4,2,95.000000
2025-11-11 09:22:21.270,,,,,,,,,,,,,,,,,,,,,,,,,,,,,,,,,,,,,,,,,,/muse/elements/blink
2025-11-11 09:22:21.807,,,,,,,,,,,,,,,,,,,,,,,,,,,,,,,,,,,,,,,,,,/muse/elements/blink
2025-11-11 09:22:22.023,1.577209381103875,0.8756920604555427,0,1.401166232021161,1.424089611683793,1.047969357917299,0,1.685717806815322,1.080374476825848,0.9025840649107217,0,1.369631176323515,1.029174891918023,0.3441612738523543,0,0.7739886985054262,0.6925481773265559,-0.1296038570090376,0,0.6009601815197186,818.7545787545788,794.981684981685,785.7142857142858,828.4249084249085,663.6263736263736,-0.356812,0.320007,1.040283,4.508514,6.773987,21.211700,334432.234432,155269230.769231,95005347.985348,94.317017,1,2,1,2,2,95.000000
2025-11-11 09:22:22.861,,,,,,,,,,,,,,,,,,,,,,,,,,,,,,,,,,,,,,,,,,/muse/elements/blink
2025-11-11 09:22:23.022,1.577209381103875,0.8756920604555427,0,1.401166232021161,1.424089611683793,1.047969357917299,0,1.685717806815322,1.080374476825848,0.9025840649107217,0,1.369631176323515,1.029174891918023,0.3441612738523543,0,0.7739886985054262,0.6925481773265559,-0.1296038570090376,0,0.6009601815197186,832.8571428571429,763.5531135531136,1262.783882783883,822.7838827838829,586.6666666666666,0.369751,-0.092529,0.973633,0.433655,-40.628967,44.688873,369890.109890,160575018.315018,105596776.556777,94.317017,1,2,1,4,2,95.000000
2025-11-11 09:22:23.708,,,,,,,,,,,,,,,,,,,,,,,,,,,,,,,,,,,,,,,,,,/muse/elements/blink
2025-11-11 09:22:24.023,1.577209381103875,0.8756920604555427,0,1.401166232021161,1.424089611683793,1.047969357917299,0,1.685717806815322,1.080374476825848,0.9025840649107217,0,1.369631176323515,1.029174891918023,0.3441612738523543,0,0.7739886985054262,0.6925481773265559,-0.1296038570090376,0,0.6009601815197186,795.7875457875458,802.6373626373627,1173.333333333333,809.0842490842491,776.8498168498169,0.288025,0.135498,0.953979,-6.527252,-7.835693,2.684174,404542.124542,162291501.831502,106711282.051282,94.317017,1,2,1,2,2,95.000000
2025-11-11 09:22:25.023,1.577209381103875,0.8756920604555427,0,1.401166232021161,1.424089611683793,1.047969357917299,0,1.685717806815322,1.080374476825848,0.9025840649107217,0,1.369631176323515,1.029174891918023,0.3441612738523543,0,0.7739886985054262,0.6925481773265559,-0.1296038570090376,0,0.6009601815197186,790.1465201465202,791.3553113553114,800.6227106227107,794.981684981685,786.9230769230769,0.468201,0.239624,0.918701,-16.890106,-16.957397,-50.191803,324761.904762,156652893.772894,94967472.527473,94.317017,1,2,1,2,2,95.000000
2025-11-11 09:22:26.030,0.9214422379552011,0.8756920604555427,0,1.537866586205152,1.057734667401855,1.047969357917299,0,1.623654607245242,1.418330944384485,0.9025840649107217,0,1.789357156432316,1.356472236331949,0.3441612738523543,0,0.9862067651920594,1.046927137732187,-0.1296038570090376,0,0.5687938234432669,801.4285714285714,796.5934065934066,944.8717948717949,804.2490842490843,601.5750915750916,0.333069,0.116150,0.915710,-28.090363,-16.007843,-62.334137,341684.981685,155899413.919414,95175384.615385,94.317017,1,1,1,2,1,95.000000
2025-11-11 09:22:27.023,1.101334261443617,1.254141218960253,0,1.050691564666235,1.190399202070273,1.177858559224942,0,1.241073387167326,1.491959187037323,0.5984459741756967,0,1.681792348207492,1.456324525582499,0.6458207150227609,0,0.9467627313365851,1.185191957217782,0.3536400732594233,0,0.4692638830904373,844.5421245421246,821.978021978022,927.948717948718,781.2820512820513,882.8205128205128,0.497192,0.124390,1.044434,-28.254852,-10.475006,-52.001190,327179.487179,155667326.007326,94696703.296703,94.317017,1,1,1,2,1,95.000000
2025-11-11 09:22:27.548,,,,,,,,,,,,,,,,,,,,,,,,,,,,,,,,,,,,,,,,,,/muse/elements/blink
2025-11-11 09:22:28.032,1.135705487495024,1.304626724635174,0,1.051006727838712,1.152187709980395,1.222559030348568,0,1.073234813998883,1.266608178195979,0.7608043102730494,0,1.395747029391063,1.673753238858315,0.6118598848243161,0,0.990352359949499,1.318781929642111,0.4766204282999066,0,0.4795364616634479,817.5457875457876,830.8424908424909,901.7582417582418,837.6923076923077,702.7106227106227,0.083557,0.170532,0.980286,-11.805878,1.816864,-56.352692,317509.157509,155747106.227106,93491941.391941,94.317017,1,1,1,2,1,95.000000
2025-11-11 09:22:28.969,,,,,,,,,,,,,,,,,,,,,,,,,,,,,,,,,,,,,,,,,,/muse/elements/blink
2025-11-11 09:22:29.023,1.14049948834886,1.349849863193338,0,1.128803001607805,1.179598178579282,1.263084963774309,0,1.051495775297799,1.23653628129465,0.7587199982338849,0,1.241442337577839,1.748431376711187,0.5750163845020964,0,0.9628133886176639,1.371193147069076,0.5723511594169909,0,0.4940186014185411,813.1135531135532,782.0879120879121,874.7619047619048,805.8608058608058,933.5897435897436,0.194336,0.032898,0.913818,-5.502930,13.734894,-27.671661,336849.816850,155443296.703297,94305860.805861,90.952827,1,1,1,2,1,95.000000
2025-11-11 09:22:29.377,,,,,,,,,,,,,,,,,,,,,,,,,,,,,,,,,,,,,,,,,,/muse/elements/blink
2025-11-11 09:22:30.022,1.14049948834886,1.349849863193338,0,1.128803001607805,1.179598178579282,1.263084963774309,0,1.051495775297799,1.23653628129465,0.7587199982338849,0,1.241442337577839,1.748431376711187,0.5750163845020964,0,0.9628133886176639,1.371193147069076,0.5723511594169909,0,0.4940186014185411,827.2161172161173,797.3992673992674,830.0366300366301,817.1428571428571,821.1721611721612,0.180725,-0.050720,1.226318,-1.443024,-1.472931,31.783905,382783.882784,155677802.197802,94622564.102564,85.242302,1,2,1,2,2,95.000000
2025-11-11 09:22:30.087,,,,,,,,,,,,,,,,,,,,,,,,,,,,,,,,,,,,,,,,,,/muse/elements/blink
2025-11-11 09:22:30.430,,,,,,,,,,,,,,,,,,,,,,,,,,,,,,,,,,,,,,,,,,/muse/elements/blink
2025-11-11 09:22:31.023,1.14049948834886,1.349849863193338,0,1.128803001607805,1.179598178579282,1.263084963774309,0,1.051495775297799,1.23653628129465,0.7587199982338849,0,1.241442337577839,1.748431376711187,0.5750163845020964,0,0.9628133886176639,1.371193147069076,0.5723511594169909,0,0.4940186014185411,820.7692307692308,859.8534798534798,329.5970695970696,799.4139194139194,611.6483516483516,0.053528,0.070557,1.032104,-1.869202,14.467621,31.365204,548791.208791,155952600.732601,94118901.098901,83.847153,1,2,1,2,2,95.000000
2025-11-11 09:22:31.118,,,,,,,,,,,,,,,,,,,,,,,,,,,,,,,,,,,,,,,,,,/muse/elements/blink
2025-11-11 09:22:32.035,1.14049948834886,1.349849863193338,0,1.128803001607805,1.179598178579282,1.263084963774309,0,1.051495775297799,1.23653628129465,0.7587199982338849,0,1.241442337577839,1.748431376711187,0.5750163845020964,0,0.9628133886176639,1.371193147069076,0.5723511594169909,0,0.4940186014185411,804.6520146520147,807.0695970695971,911.8315018315019,790.1465201465202,591.5018315018315,-0.230469,-0.114075,0.918640,-13.712463,1.996307,23.551941,1476336.996337,155368351.648352,92956043.956044,83.847153,1,2,1,2,2,95.000000
2025-11-11 09:22:32.757,,,,,,,,,,,,,,,,,,,,,,,,,,,,,,,,,,,,,,,,,,/muse/elements/blink
2025-11-11 09:22:33.023,0.9127078565141306,1.349849863193338,0,1.128803001607805,0.3093401290250514,1.263084963774309,0,1.051495775297799,0.7669321082988646,0.7587199982338849,0,1.241442337577839,0.6687959803489402,0.5750163845020964,0,0.9628133886176639,0.4802282638136077,0.5723511594169909,0,0.4940186014185411,630.5860805860806,765.1648351648352,913.040293040293,693.8461538461538,664.8351648351648,0.216492,0.077271,1.037720,23.402405,-14.774170,67.949219,332014.652015,156041245.421245,97273040.293040,84.563171,1,1,1,2,1,95.000000
2025-11-11 09:22:33.144,,,,,,,,,,,,,,,,,,,,,,,,,,,,,,,,,,,,,,,,,,/muse/elements/blink
2025-11-11 09:22:33.551,,,,,,,,,,,,,,,,,,,,,,,,,,,,,,,,,,,,,,,,,,/muse/elements/blink
2025-11-11 09:22:34.023,0.9127078565141306,1.349849863193338,0,1.128803001607805,0.3093401290250514,1.263084963774309,0,1.051495775297799,0.7669321082988646,0.7587199982338849,0,1.241442337577839,0.6687959803489402,0.5750163845020964,0,0.9628133886176639,0.4802282638136077,0.5723511594169909,0,0.4940186014185411,801.4285714285714,788.5347985347986,1200.32967032967,767.5824175824176,626.959706959707,0.399780,0.055176,0.967102,4.643097,-0.590668,37.010193,340879.120879,156135531.135531,95197948.717949,85.900887,1,1,1,2,1,95.000000
2025-11-11 09:22:34.262,,,,,,,,,,,,,,,,,,,,,,,,,,,,,,,,,,,,,,,,,,/muse/elements/blink
2025-11-11 09:22:35.031,0.9127078565141306,1.349849863193338,0,1.128803001607805,0.3093401290250514,1.263084963774309,0,1.051495775297799,0.7669321082988646,0.7587199982338849,0,1.241442337577839,0.6687959803489402,0.5750163845020964,0,0.9628133886176639,0.4802282638136077,0.5723511594169909,0,0.4940186014185411,806.2637362637363,799.4139194139194,1023.443223443223,797.3992673992674,537.9120879120879,0.250793,-0.061584,0.945435,16.209717,-10.542297,27.925873,381172.161172,156185494.505495,93006813.186813,97.142929,1,1,1,2,1,95.000000
2025-11-11 09:22:35.578,,,,,,,,,,,,,,,,,,,,,,,,,,,,,,,,,,,,,,,,,,/muse/elements/blink
2025-11-11 09:22:36.023,0.9127078565141306,1.199116446600104,0,1.128803001607805,0.3093401290250514,0.9380079786526263,0,1.051495775297799,0.7669321082988646,0.5986686625327446,0,1.241442337577839,0.6687959803489402,0.2367513661450959,0,0.9628133886176639,0.4802282638136077,-0.3453638507415489,0,0.4940186014185411,814.7252747252747,813.919413919414,728.901098901099,841.7216117216118,1078.241758241758,0.327087,0.103455,1.082031,-11.783447,1.809387,-10.617065,382783.882784,155764835.164835,93132527.472527,97.968590,1,2,1,2,2,95.000000
2025-11-11 09:22:36.699,,,,,,,,,,,,,,,,,,,,,,,,,,,,,,,,,,,,,,,,,,/muse/elements/blink
2025-11-11 09:22:37.024,0.9127078565141306,1.273741126055755,0,1.128803001607805,0.3093401290250514,1.051341266688481,0,1.051495775297799,0.7669321082988646,0.1992791514792752,0,1.241442337577839,0.6687959803489402,0.2214840607853994,0,0.9628133886176639,0.4802282638136077,-0.4522617742122166,0,0.4940186014185411,819.96336996337,796.996336996337,902.5641025641025,790.5494505494506,673.2967032967033,0.384827,0.240601,0.964233,-11.521759,-23.080902,-51.619873,350549.450549,155883296.703297,93044688.644689,97.968590,1,2,1,2,2,95.000000
2025-11-11 09:22:37.734,,,,,,,,,,,,,,,,,,,,,,,,,,,,,,,,,,,,,,,,,,/muse/elements/blink
2025-11-11 09:22:38.025,0.9127078565141306,1.119104946214749,0,1.128803001607805,0.3093401290250514,0.9908959890338747,0,1.051495775297799,0.7669321082988646,0.05640861168327032,0,1.241442337577839,0.6687959803489402,-0.02368055156416451,0,0.9628133886176639,0.4802282638136077,-0.5456493552812398,0,0.4940186014185411,863.8827838827839,831.2454212454213,963.4065934065934,858.2417582417582,679.7435897435897,0.043945,0.017151,0.961304,-16.538696,-24.703369,-37.376556,348131.868132,155813186.813187,93549157.509158,97.968590,1,2,1,2,2,95.000000
2025-11-11 09:22:39.023,0.9127078565141306,1.119104946214749,0,1.128803001607805,0.3093401290250514,0.9908959890338747,0,1.051495775297799,0.7669321082988646,0.05640861168327032,0,1.241442337577839,0.6687959803489402,-0.02368055156416451,0,0.9628133886176639,0.4802282638136077,-0.5456493552812398,0,0.4940186014185411,772.014652014652,801.025641025641,740.989010989011,801.8315018315019,876.7765567765568,0.301758,0.116577,0.909912,-34.475555,3.386993,-7.626343,332014.652015,155776923.076923,96354358.974359,97.968590,1,2,1,2,2,95.000000
2025-11-11 09:22:39.669,,,,,,,,,,,,,,,,,,,,,,,,,,,,,,,,,,,,,,,,,,/muse/elements/blink
2025-11-11 09:22:40.029,0.9127078565141306,1.119104946214749,0,1.128803001607805,0.3093401290250514,0.9908959890338747,0,1.051495775297799,0.7669321082988646,0.05640861168327032,0,1.241442337577839,0.6687959803489402,-0.02368055156416451,0,0.9628133886176639,0.4802282638136077,-0.5456493552812398,0,0.4940186014185411,801.8315018315019,844.5421245421246,998.0586080586081,816.3369963369963,653.5531135531136,0.199951,0.215759,0.814514,-27.163239,5.981445,-61.721039,320732.600733,155921172.161172,96182710.622711,97.968590,1,2,1,2,2,95.000000
2025-11-11 09:22:40.451,,,,,,,,,,,,,,,,,,,,,,,,,,,,,,,,,,,,,,,,,,/muse/elements/blink
2025-11-11 09:22:40.969,,,,,,,,,,,,,,,,,,,,,,,,,,,,,,,,,,,,,,,,,,/muse/elements/blink
2025-11-11 09:22:41.022,0.9127078565141306,1.119104946214749,0,1.128803001607805,0.3093401290250514,0.9908959890338747,0,1.051495775297799,0.7669321082988646,0.05640861168327032,0,1.241442337577839,0.6687959803489402,-0.02368055156416451,0,0.9628133886176639,0.4802282638136077,-0.5456493552812398,0,0.4940186014185411,527.032967032967,840.9157509157509,813.5164835164835,540.7326007326008,593.1135531135532,-0.064453,-0.009338,0.979309,0.882263,41.062622,-18.527527,319120.879121,155979194.139194,95339780.219780,94.585121,1,2,1,2,2,95.000000
2025-11-11 09:22:41.163,,,,,,,,,,,,,,,,,,,,,,,,,,,,,,,,,,,,,,,,,,/muse/elements/blink
2025-11-11 09:22:42.022,0.9127078565141306,1.119104946214749,0,1.128803001607805,0.3093401290250514,0.9908959890338747,0,1.051495775297799,0.7669321082988646,0.05640861168327032,0,1.241442337577839,0.6687959803489402,-0.02368055156416451,0,0.9628133886176639,0.4802282638136077,-0.5456493552812398,0,0.4940186014185411,791.7582417582418,794.1758241758242,1267.216117216117,821.1721611721612,749.8534798534798,-0.280823,0.067505,0.989746,-4.344025,4.762726,-5.652466,330402.930403,155389304.029304,92083296.703297,89.795273,1,2,1,4,2,95.000000
2025-11-11 09:22:43.026,0.9127078565141306,0.9355736590038347,0,1.128803001607805,0.3093401290250514,0.6170399978816787,0,1.051495775297799,0.7669321082988646,0.6017983086181667,0,1.241442337577839,0.6687959803489402,0.1688595663286097,0,0.9628133886176639,0.4802282638136077,0.005042815588741977,0,0.4940186014185411,789.3406593406594,738.974358974359,779.2673992673992,781.2820512820513,586.6666666666666,0.273621,0.001343,0.989990,3.416901,-21.069641,36.307373,460146.520147,155889743.589744,92847252.747253,89.795273,1,2,1,2,2,95.000000
2025-11-11 09:22:43.921,,,,,,,,,,,,,,,,,,,,,,,,,,,,,,,,,,,,,,,,,,/muse/elements/blink
2025-11-11 09:22:44.023,0.9127078565141306,0.9355736590038347,0,1.128803001607805,0.3093401290250514,0.6170399978816787,0,1.051495775297799,0.7669321082988646,0.6017983086181667,0,1.241442337577839,0.6687959803489402,0.1688595663286097,0,0.9628133886176639,0.4802282638136077,0.005042815588741977,0,0.4940186014185411,824.7985347985348,822.7838827838829,1168.095238095238,821.978021978022,789.3406593406594,-0.133484,-0.074219,0.939514,7.446899,36.412048,23.424835,984761.904762,155446520.146520,94316336.996337,89.795273,1,2,1,4,2,95.000000
2025-11-11 09:22:45.030,0.9127078565141306,0.9939386698600134,0,1.128803001607805,0.3093401290250514,0.599556148007815,0,1.051495775297799,0.7669321082988646,0.5948913333096446,0,1.241442337577839,0.6687959803489402,0.1632849458867153,0,0.9628133886176639,0.4802282638136077,0.03641524573326776,0,0.4940186014185411,745.4212454212454,816.3369963369963,835.6776556776557,766.7765567765568,726.8864468864469,-0.038696,0.118042,0.830994,-38.393402,-76.375580,112.107239,322344.322344,155479560.439560,94552454.212454,92.301384,1,2,1,2,2,95.000000
2025-11-11 09:22:45.237,,,,,,,,,,,,,,,,,,,,,,,,,,,,,,,,,,,,,,,,,,/muse/elements/blink
2025-11-11 09:22:46.023,0.9127078565141306,0.9939386698600134,0,1.128803001607805,0.3093401290250514,0.599556148007815,0,1.051495775297799,0.7669321082988646,0.5948913333096446,0,1.241442337577839,0.6687959803489402,0.1632849458867153,0,0.9628133886176639,0.4802282638136077,0.03641524573326776,0,0.4940186014185411,801.025641025641,775.6410256410256,990,776.8498168498169,634.2124542124542,0.352295,0.005249,0.870300,14.460144,6.572113,54.281616,348131.868132,160719267.399267,103947179.487179,95.604782,1,2,1,2,2,95.000000
2025-11-11 09:22:46.764,,,,,,,,,,,,,,,,,,,,,,,,,,,,,,,,,,,,,,,,,,/muse/elements/blink
2025-11-11 09:22:47.022,0.9127078565141306,0.9939386698600134,0,1.128803001607805,0.3093401290250514,0.599556148007815,0,1.051495775297799,0.7669321082988646,0.5948913333096446,0,1.241442337577839,0.6687959803489402,0.1632849458867153,0,0.9628133886176639,0.4802282638136077,0.03641524573326776,0,0.4940186014185411,803.040293040293,798.6080586080586,493.5897435897436,805.4578754578755,799.0109890109891,0.201050,-0.047546,0.947266,15.723724,-6.265564,36.703644,413406.593407,157229084.249084,98046666.666667,95.604782,1,2,1,2,2,95.000000
2025-11-11 09:22:47.756,,,,,,,,,,,,,,,,,,,,,,,,,,,,,,,,,,,,,,,,,,/muse/elements/blink
2025-11-11 09:22:48.025,0.9127078565141306,1.444310900954188,0,1.128803001607805,0.3093401290250514,1.11566201127511,0,1.051495775297799,0.7669321082988646,0.6111705892312302,0,1.241442337577839,0.6687959803489402,0.1681542715742043,0,0.9628133886176639,0.4802282638136077,-0.09237603512865181,0,0.4940186014185411,781.6849816849817,811.5018315018315,894.1025641025641,828.4249084249085,834.8717948717949,0.197449,0.057129,1.133057,-8.792725,-5.196381,9.682465,378754.578755,156143589.743590,96077142.857143,95.604782,1,2,1,2,2,95.000000
2025-11-11 09:22:49.022,0.9127078565141306,1.213728726952577,0,1.128803001607805,0.3093401290250514,1.223712863400864,0,1.051495775297799,0.7669321082988646,0.6457783053220946,0,1.241442337577839,0.6687959803489402,0.2195520959772807,0,0.9628133886176639,0.4802282638136077,-0.05204385437874082,0,0.4940186014185411,817.1428571428571,813.5164835164835,1091.538461538462,805.8608058608058,579.0109890109891,0.336609,0.230164,0.929810,-13.338623,-27.933350,-50.416107,338461.538462,156200000.000000,95701611.721612,95.604782,1,2,1,2,2,95.000000
2025-11-11 09:22:49.908,,,,,,,,,,,,,,,,,,,,,,,,,,,,,,,,,,,,,,,,,,/muse/elements/blink
2025-11-11 09:22:50.029,0.8821978167355112,1.437416182853291,0,1.372197021195367,0.8187666292431754,1.374343131698492,0,0.9882758788673022,1.457668278249288,0.6086985700323102,0,1.042826450843085,1.086408135314413,0.2305914828918833,0,1.004674823616763,0.9408599783833689,0.02744032856046127,0,0.7943005803239299,802.2344322344322,782.0879120879121,892.0879120879121,830.4395604395604,743.4065934065934,0.320679,0.089905,0.970947,-18.721924,-9.226379,-61.534119,336043.956044,155678608.058608,94413040.293040,95.604782,1,1,1,2,1,95.000000
2025-11-11 09:22:51.022,0.9715301974570915,1.678901396560372,0,1.399470684017893,0.8632354501544701,1.528328006170166,0,1.034839716812124,1.451382614648041,0.5316920827402527,0,1.000426961858453,1.082353932332695,0.05206788138212708,0,0.9470462183704246,0.9455905730989217,-0.1762233810155006,0,0.8373128403294613,785.3113553113553,776.0439560439561,848.5714285714286,808.2783882783883,705.934065934066,0.495117,0.131836,0.760132,-14.706879,-1.226196,-21.720123,327179.487179,155442490.842491,93867472.527473,95.604782,1,1,1,2,1,95.000000
2025-11-11 09:22:51.634,,,,,,,,,,,,,,,,,,,,,,,,,,,,,,,,,,,,,,,,,,/muse/elements/blink
2025-11-11 09:22:52.028,0.9642864192906214,1.678901396560372,0,1.399470684017893,1.039688631148331,1.528328006170166,0,1.034839716812124,1.441362451003694,0.5316920827402527,0,1.000426961858453,1.473438455021959,0.05206788138212708,0,0.9470462183704246,1.371808720509802,-0.1762233810155006,0,0.8373128403294613,813.919413919414,798.6080586080586,1035.531135531136,780.4761904761905,620.1098901098901,0.354004,0.212219,0.851746,-20.404205,-8.306732,-44.972992,319926.739927,154854212.454212,92950402.930403,95.604782,1,1,1,2,1,95.000000
2025-11-11 09:22:52.449,,,,,,,,,,,,,,,,,,,,,,,,,,,,,,,,,,,,,,,,,,/muse/elements/blink
2025-11-11 09:22:52.727,,,,,,,,,,,,,,,,,,,,,,,,,,,,,,,,,,,,,,,,,,/muse/elements/jaw_clench
2025-11-11 09:22:52.941,,,,,,,,,,,,,,,,,,,,,,,,,,,,,,,,,,,,,,,,,,/muse/elements/blink
2025-11-11 09:22:53.022,0.9642864192906214,1.678901396560372,0,1.399470684017893,1.039688631148331,1.528328006170166,0,1.034839716812124,1.441362451003694,0.5316920827402527,0,1.000426961858453,1.473438455021959,0.05206788138212708,0,0.9470462183704246,1.371808720509802,-0.1762233810155006,0,0.8373128403294613,846.5567765567765,766.3736263736264,1621.794871794872,672.893772893773,634.2124542124542,-0.152283,0.035889,0.919067,13.263855,13.435822,-65.040741,307032.967033,149774065.934066,85527619.047619,95.604782,1,1,1,2,1,95.000000
2025-11-11 09:22:53.327,,,,,,,,,,,,,,,,,,,,,,,,,,,,,,,,,,,,,,,,,,/muse/elements/blink
2025-11-11 09:22:53.846,,,,,,,,,,,,,,,,,,,,,,,,,,,,,,,,,,,,,,,,,,/muse/elements/blink
2025-11-11 09:22:54.022,0.9642864192906214,1.678901396560372,0,1.399470684017893,1.039688631148331,1.528328006170166,0,1.034839716812124,1.441362451003694,0.5316920827402527,0,1.000426961858453,1.473438455021959,0.05206788138212708,0,0.9470462183704246,1.371808720509802,-0.1762233810155006,0,0.8373128403294613,780.0732600732601,826.4102564102565,0,750.6593406593407,698.6813186813187,0.243164,0.060425,1.100403,-18.729401,-27.866058,11.297455,319926.739927,149147106.227106,85625934.065934,95.604782,1,1,4,2,1,95.000000
2025-11-11 09:22:54.277,,,,,,,,,,,,,,,,,,,,,,,,,,,,,,,,,,,,,,,,,,/muse/elements/jaw_clench
2025-11-11 09:22:54.687,,,,,,,,,,,,,,,,,,,,,,,,,,,,,,,,,,,,,,,,,,/muse/elements/jaw_clench
2025-11-11 09:22:55.023,0.9642864192906214,1.678901396560372,0,1.399470684017893,1.039688631148331,1.528328006170166,0,1.034839716812124,1.441362451003694,0.5316920827402527,0,1.000426961858453,1.473438455021959,0.05206788138212708,0,0.9470462183704246,1.371808720509802,-0.1762233810155006,0,0.8373128403294613,828.4249084249085,807.0695970695971,913.8461538461539,894.5054945054945,581.8315018315019,0.373657,0.070862,0.915405,7.910461,-3.529053,36.494293,355384.615385,152533333.333333,85642051.282051,117.266235,1,2,1,4,2,95.000000
2025-11-11 09:22:55.400,,,,,,,,,,,,,,,,,,,,,,,,,,,,,,,,,,,,,,,,,,/muse/elements/jaw_clench
2025-11-11 09:22:56.021,0.9642864192906214,1.311162657705718,0,1.399470684017893,1.039688631148331,1.031390719241238,0,1.034839716812124,1.441362451003694,0.7954880314897149,0,1.000426961858453,1.473438455021959,0.1919499639628464,0,0.9470462183704246,1.371808720509802,0.4246500211858054,0,0.8373128403294613,794.981684981685,816.3369963369963,854.2124542124542,812.3076923076924,709.1575091575091,0.361328,-0.087402,0.902466,27.036133,-4.044952,56.891022,363443.223443,152966886.446886,85376117.216117,117.266235,1,2,1,1,2,95.000000
2025-11-11 09:22:56.113,,,,,,,,,,,,,,,,,,,,,,,,,,,,,,,,,,,,,,,,,,/muse/elements/jaw_clench
2025-11-11 09:22:56.394,,,,,,,,,,,,,,,,,,,,,,,,,,,,,,,,,,,,,,,,,,/muse/elements/blink
2025-11-11 09:22:56.716,,,,,,,,,,,,,,,,,,,,,,,,,,,,,,,,,,,,,,,,,,/muse/elements/blink
2025-11-11 09:22:57.031,0.9642864192906214,1.331275011033118,0,1.399470684017893,1.039688631148331,0.9833689072563537,0,1.034839716812124,1.441362451003694,0.727979941808606,0,1.000426961858453,1.473438455021959,0.1849618155533275,0,0.9470462183704246,1.371808720509802,0.2948923795122155,0,0.8373128403294613,747.032967032967,813.1135531135532,338.4615384615385,764.7619047619048,753.4798534798535,0.371277,0.207703,0.903748,40.591583,32.322235,134.530182,318315.018315,153418168.498168,84889377.289377,117.266235,1,2,1,1,2,95.000000
2025-11-11 09:22:57.236,,,,,,,,,,,,,,,,,,,,,,,,,,,,,,,,,,,,,,,,,,/muse/elements/blink
2025-11-11 09:22:57.515,,,,,,,,,,,,,,,,,,,,,,,,,,,,,,,,,,,,,,,,,,/muse/elements/jaw_clench
2025-11-11 09:22:57.945,,,,,,,,,,,,,,,,,,,,,,,,,,,,,,,,,,,,,,,,,,/muse/elements/blink
2025-11-11 09:22:58.022,0.9642864192906214,1.374369463926157,0,1.399470684017893,1.039688631148331,0.9820247043970094,0,1.034839716812124,1.441362451003694,0.4922007360845888,0,1.000426961858453,1.473438455021959,0.1955750819943859,0,0.9470462183704246,1.371808720509802,0.07302004099073979,0,0.8373128403294613,829.2307692307693,830.8424908424909,949.3040293040293,884.8351648351648,639.8534798534798,0.244385,0.054565,0.990540,1.861725,-1.749573,31.671753,316703.296703,151060219.780220,84978021.978022,101.831291,1,2,1,1,2,95.000000
2025-11-11 09:22:58.205,,,,,,,,,,,,,,,,,,,,,,,,,,,,,,,,,,,,,,,,,,/muse/elements/blink
2025-11-11 09:22:59.021,0.9642864192906214,1.374369463926157,0,1.399470684017893,1.039688631148331,0.9820247043970094,0,1.034839716812124,1.441362451003694,0.4922007360845888,0,1.000426961858453,1.473438455021959,0.1955750819943859,0,0.9470462183704246,1.371808720509802,0.07302004099073979,0,0.8373128403294613,668.0586080586081,843.7362637362637,714.3956043956044,725.6776556776557,977.1062271062272,-0.127808,-0.026489,1.118958,-3.850555,14.639587,33.122253,350549.450549,150995750.915751,84462271.062271,90.196899,1,2,1,2,2,95.000000
2025-11-11 09:22:59.153,,,,,,,,,,,,,,,,,,,,,,,,,,,,,,,,,,,,,,,,,,/muse/elements/blink
2025-11-11 09:22:59.153,,,,,,,,,,,,,,,,,,,,,,,,,,,,,,,,,,,,,,,,,,/muse/elements/jaw_clench
2025-11-11 09:22:59.564,,,,,,,,,,,,,,,,,,,,,,,,,,,,,,,,,,,,,,,,,,/muse/elements/jaw_clench
2025-11-11 09:22:59.863,,,,,,,,,,,,,,,,,,,,,,,,,,,,,,,,,,,,,,,,,,/muse/elements/jaw_clench
2025-11-11 09:23:00.021,0.9642864192906214,1.374369463926157,0,1.399470684017893,1.039688631148331,0.9820247043970094,0,1.034839716812124,1.441362451003694,0.4922007360845888,0,1.000426961858453,1.473438455021959,0.1955750819943859,0,0.9470462183704246,1.371808720509802,0.07302004099073979,0,0.8373128403294613,831.6483516483516,844.1391941391942,857.032967032967,833.2600732600733,768.7912087912088,0.017883,0.167786,0.938049,2.579498,-1.772003,33.398895,324761.904762,150457435.897436,84734652.014652,89.578339,1,2,1,2,2,95.000000
2025-11-11 09:23:00.449,,,,,,,,,,,,,,,,,,,,,,,,,,,,,,,,,,,,,,,,,,/muse/elements/blink
2025-11-11 09:23:01.021,0.9642864192906214,1.374369463926157,0,1.399470684017893,1.039688631148331,0.9820247043970094,0,1.034839716812124,1.441362451003694,0.4922007360845888,0,1.000426961858453,1.473438455021959,0.1955750819943859,0,0.9470462183704246,1.371808720509802,0.07302004099073979,0,0.8373128403294613,784.1025641025641,805.0549450549451,686.996336996337,791.7582417582418,766.7765567765568,-0.231445,0.142456,1.000244,1.211243,5.091705,-20.247192,319926.739927,150425201.465201,84691135.531136,85.843201,1,2,1,4,2,95.000000
2025-11-11 09:23:02.032,0.8584838141581936,0.0007783991989829878,0,1.399470684017893,0.9275153570962121,0.08758375144982641,0,1.034839716812124,1.447988963709207,0.8312131079365035,0,1.000426961858453,1.54243442635943,1.043461566984427,0,0.9470462183704246,1.097216794681248,0.7866120671719864,0,0.8373128403294613,827.6190476190476,801.4285714285714,893.6996336996338,801.025641025641,684.1758241758242,-0.154297,0.285522,1.041016,-4.852448,2.078552,-2.183228,315897.435897,151514725.274725,84237435.897436,83.878395,1,1,1,4,1,90.000000
2025-11-11 09:23:02.602,,,,,,,,,,,,,,,,,,,,,,,,,,,,,,,,,,,,,,,,,,/muse/elements/jaw_clench
2025-11-11 09:23:03.022,0.9960312429412805,0.3962393409012246,0,1.291346790176835,0.8664680535346824,0.1452592860901932,0,1.054109110236401,1.507215575955562,0.9069607675130077,0,1.616193166179797,1.550027232972758,0.9217426646174564,0,1.683389284568146,1.125185205914972,0.7804005017355322,0,0.9595775366071766,815.1282051282052,797.3992673992674,535.4945054945055,816.3369963369963,606.007326007326,-0.093872,0.249451,1.026611,-4.545898,-2.235565,-15.447083,306227.106227,150662930.402930,83853040.293040,83.878395,1,1,1,4,1,90.000000
2025-11-11 09:23:04.022,1.122917782932748,0.3148870790054615,0,1.291346790176835,0.7756724524237107,0.1227057344462736,0,1.054109110236401,1.383832056129709,0.5460978552627415,0,1.616193166179797,1.559335292188617,0.8126468158784972,0,1.683389284568146,1.157788756246805,0.7625462733787726,0,0.9595775366071766,801.4285714285714,811.5018315018315,819.96336996337,785.3113553113553,689.4139194139194,0.033508,0.009705,1.001099,-10.527344,-14.490051,-2.482300,307032.967033,151270549.450549,84139120.879121,95.984360,1,1,1,4,1,90.000000
2025-11-11 09:23:04.199,,,,,,,,,,,,,,,,,,,,,,,,,,,,,,,,,,,,,,,,,,/muse/elements/jaw_clench
2025-11-11 09:23:04.565,,,,,,,,,,,,,,,,,,,,,,,,,,,,,,,,,,,,,,,,,,/muse/elements/jaw_clench
2025-11-11 09:23:04.716,,,,,,,,,,,,,,,,,,,,,,,,,,,,,,,,,,,,,,,,,,/muse/elements/jaw_clench
2025-11-11 09:23:05.021,1.25451512916206,0.520136772991392,0,1.291346790176835,0.9968097092262633,0.1748665231280866,0,1.054109110236401,0.9298590951949169,0.4239249675199699,0,1.616193166179797,0.8562639255697355,0.4781744525587652,0,1.683389284568146,0.7936695335747989,0.3968021275260413,0,0.9595775366071766,778.4615384615385,806.2637362637363,1589.96336996337,811.0989010989011,734.5421245421246,0.135437,0.055359,0.926636,-4.231873,4.314117,-16.576080,311062.271062,150717728.937729,83950549.450549,95.984360,1,1,1,4,1,90.000000
2025-11-11 09:23:05.060,,,,,,,,,,,,,,,,,,,,,,,,,,,,,,,,,,,,,,,,,,/muse/elements/jaw_clench
2025-11-11 09:23:05.514,,,,,,,,,,,,,,,,,,,,,,,,,,,,,,,,,,,,,,,,,,/muse/elements/blink
2025-11-11 09:23:05.514,,,,,,,,,,,,,,,,,,,,,,,,,,,,,,,,,,,,,,,,,,/muse/elements/jaw_clench
2025-11-11 09:23:06.022,1.281665897357509,0.5414429949786729,0,1.291346790176835,0.9365827055689484,0.2945761449701865,0,1.054109110236401,0.7149800959010097,0.4736676333423447,0,1.616193166179797,0.8206401594954789,0.5908635659078609,0,1.683389284568146,0.7041031258776659,0.3798336413465748,0,0.9595775366071766,749.8534798534798,788.1318681318681,672.893772893773,857.4358974358975,809.8901098901099,0.441040,0.121033,0.868103,-16.777954,-14.467621,-59.777069,316703.296703,151329377.289377,83878827.838828,95.984360,1,1,1,4,1,90.000000
2025-11-11 09:23:06.462,,,,,,,,,,,,,,,,,,,,,,,,,,,,,,,,,,,,,,,,,,/muse/elements/jaw_clench
2025-11-11 09:23:07.021,1.281665897357509,1.15232515641624,0,1.291346790176835,0.9365827055689484,0.8075722343953128,0,1.054109110236401,0.7149800959010097,0.3568099261000905,0,1.616193166179797,0.8206401594954789,0.6412168195046607,0,1.683389284568146,0.7041031258776659,0.4143667012445937,0,0.9595775366071766,780.4761904761905,808.6813186813187,899.7435897435897,768.7912087912088,639.8534798534798,0.331116,0.274170,0.893066,-18.826599,-4.179535,-36.838226,308644.688645,150447765.567766,83504908.424908,118.706573,1,1,1,1,1,90.000000
2025-11-11 09:23:07.065,,,,,,,,,,,,,,,,,,,,,,,,,,,,,,,,,,,,,,,,,,/muse/elements/jaw_clench
2025-11-11 09:23:07.345,,,,,,,,,,,,,,,,,,,,,,,,,,,,,,,,,,,,,,,,,,/muse/elements/jaw_clench
2025-11-11 09:23:08.021,1.281665897357509,0.8908024340397062,0,1.291346790176835,0.9365827055689484,0.497378879896192,0,1.054109110236401,0.7149800959010097,0.5225773204800892,0,1.616193166179797,0.8206401594954789,0.4524991584963594,0,1.683389284568146,0.7041031258776659,0.2835460369072745,0,0.9595775366071766,765.9706959706959,777.6556776556777,1574.249084249084,824.7985347985348,653.5531135531136,0.129822,0.107605,0.924927,-3.200073,-23.806152,-60.240631,374725.274725,148869890.109890,82494358.974359,118.706573,1,2,1,2,2,90.000000
2025-11-11 09:23:08.098,,,,,,,,,,,,,,,,,,,,,,,,,,,,,,,,,,,,,,,,,,/muse/elements/blink
2025-11-11 09:23:08.379,,,,,,,,,,,,,,,,,,,,,,,,,,,,,,,,,,,,,,,,,,/muse/elements/jaw_clench
2025-11-11 09:23:09.021,1.281665897357509,0.6566221913637422,0,1.291346790176835,0.9365827055689484,0.3353383990439395,0,1.054109110236401,0.7149800959010097,0.219109227399876,0,1.616193166179797,0.8206401594954789,0.3825214972281848,0,1.683389284568146,0.7041031258776659,0.3044413924849193,0,0.9595775366071766,907.8021978021978,824.7985347985348,1574.652014652015,816.3369963369963,626.1538461538462,-0.025818,0.047485,0.983826,-10.534821,18.998566,-1.323395,358608.058608,148176849.816850,81882710.622711,111.448540,1,2,1,2,2,90.000000
2025-11-11 09:23:09.936,,,,,,,,,,,,,,,,,,,,,,,,,,,,,,,,,,,,,,,,,,/muse/elements/blink
2025-11-11 09:23:10.021,1.281665897357509,0.6566221913637422,0,1.291346790176835,0.9365827055689484,0.3353383990439395,0,1.054109110236401,0.7149800959010097,0.219109227399876,0,1.616193166179797,0.8206401594954789,0.3825214972281848,0,1.683389284568146,0.7041031258776659,0.3044413924849193,0,0.9595775366071766,801.4285714285714,787.3260073260074,0,782.893772893773,509.3040293040293,0.286743,0.071045,0.945007,7.132874,-32.808228,64.285583,331208.791209,149990842.490842,82856996.336996,111.448540,1,2,1,4,2,90.000000
2025-11-11 09:23:10.563,,,,,,,,,,,,,,,,,,,,,,,,,,,,,,,,,,,,,,,,,,/muse/elements/jaw_clench
2025-11-11 09:23:11.021,1.281665897357509,0.6566221913637422,0,1.291346790176835,0.9365827055689484,0.3353383990439395,0,1.054109110236401,0.7149800959010097,0.219109227399876,0,1.616193166179797,0.8206401594954789,0.3825214972281848,0,1.683389284568146,0.7041031258776659,0.3044413924849193,0,0.9595775366071766,809.4871794871796,797.3992673992674,583.040293040293,792.5641025641025,1280.10989010989,0.362488,-0.037842,0.927185,28.299713,3.259888,31.537170,379560.439560,150332527.472527,83201098.901099,111.448540,1,2,1,4,2,90.000000
2025-11-11 09:23:11.148,,,,,,,,,,,,,,,,,,,,,,,,,,,,,,,,,,,,,,,,,,/muse/elements/jaw_clench
2025-11-11 09:23:12.021,1.281665897357509,0.8307598749251751,0,1.291346790176835,0.9365827055689484,0.5561633733510383,0,1.054109110236401,0.7149800959010097,0.4308912835482409,0,1.616193166179797,0.8206401594954789,0.1833021408937265,0,1.683389284568146,0.7041031258776659,-0.1804900033700948,0,0.9595775366071766,852.6007326007326,779.6703296703297,818.3516483516484,828.021978021978,697.4725274725275,0.216675,-0.084534,0.898987,29.398804,10.190887,80.039215,315091.575092,151287472.527473,83465421.245421,111.448540,1,2,1,1,2,90.000000
2025-11-11 09:23:12.222,,,,,,,,,,,,,,,,,,,,,,,,,,,,,,,,,,,,,,,,,,/muse/elements/jaw_clench
2025-11-11 09:23:12.564,,,,,,,,,,,,,,,,,,,,,,,,,,,,,,,,,,,,,,,,,,/muse/elements/blink
2025-11-11 09:23:12.737,,,,,,,,,,,,,,,,,,,,,,,,,,,,,,,,,,,,,,,,,,/muse/elements/jaw_clench
2025-11-11 09:23:12.975,,,,,,,,,,,,,,,,,,,,,,,,,,,,,,,,,,,,,,,,,,/muse/elements/jaw_clench
2025-11-11 09:23:13.028,1.279236348668783,0.9935740910749592,0,1.291346790176835,1.194116380577866,0.7297499057240608,0,1.054109110236401,0.7188477504897195,0.5855892895236526,0,1.616193166179797,1.181094615560221,0.07906776109067455,0,1.683389284568146,1.212129231581705,-0.2518317097665016,0,0.9595775366071766,792.1611721611722,782.0879120879121,886.0439560439561,865.4945054945056,573.3699633699634,0.281067,0.054382,0.926025,24.972534,14.512482,108.361359,316703.296703,151276996.336996,83975531.135531,111.448540,1,1,1,1,1,90.000000
2025-11-11 09:23:13.773,,,,,,,,,,,,,,,,,,,,,,,,,,,,,,,,,,,,,,,,,,/muse/elements/blink
2025-11-11 09:23:13.860,,,,,,,,,,,,,,,,,,,,,,,,,,,,,,,,,,,,,,,,,,/muse/elements/jaw_clench
2025-11-11 09:23:14.021,1.279236348668783,1.04222480705537,0,1.291346790176835,1.194116380577866,0.5443362972990897,0,1.054109110236401,0.7188477504897195,0.7251289626322465,0,1.616193166179797,1.181094615560221,0.4952691164694346,0,1.683389284568146,1.212129231581705,0.06464842760883351,0,0.9595775366071766,791.3553113553114,799.0109890109891,732.9304029304029,797.3992673992674,715.6043956043957,-0.055054,-0.069946,1.011780,13.368530,3.506622,-6.744080,357802.197802,150236630.036630,83840952.380952,111.448540,1,1,1,1,1,90.000000
2025-11-11 09:23:15.022,1.279236348668783,0.9020125672152505,0,1.291346790176835,1.194116380577866,0.2788358667217291,0,1.054109110236401,0.7188477504897195,0.6844768836461335,0,1.616193166179797,1.181094615560221,0.7561954577619046,0,1.683389284568146,1.212129231581705,0.3445478267558471,0,0.9595775366071766,686.996336996337,899.3406593406594,1533.150183150183,763.1501831501831,890.4761904761905,-0.304138,0.231323,0.931885,-7.835693,-27.679138,23.851013,326373.626374,157159780.219780,92581318.681319,111.448540,1,2,1,4,2,90.000000
2025-11-11 09:23:15.407,,,,,,,,,,,,,,,,,,,,,,,,,,,,,,,,,,,,,,,,,,/muse/elements/blink
2025-11-11 09:23:15.792,,,,,,,,,,,,,,,,,,,,,,,,,,,,,,,,,,,,,,,,,,/muse/elements/blink
2025-11-11 09:23:16.021,1.279236348668783,0.7985460788402121,0,1.291346790176835,1.194116380577866,0.1867960861913832,0,1.054109110236401,0.7188477504897195,0.1149802977645752,0,1.616193166179797,1.181094615560221,0.6778050449890646,0,1.683389284568146,1.212129231581705,0.393748014089689,0,0.9595775366071766,847.7655677655678,832.4542124542124,1323.223443223443,830.4395604395604,609.2307692307693,-0.128967,0.042603,1.050964,-2.205658,19.462128,-16.987305,311062.271062,158046227.106227,95993333.333333,100.580505,1,2,1,4,2,90.000000
2025-11-11 09:23:16.418,,,,,,,,,,,,,,,,,,,,,,,,,,,,,,,,,,,,,,,,,,/muse/elements/blink
2025-11-11 09:23:16.722,,,,,,,,,,,,,,,,,,,,,,,,,,,,,,,,,,,,,,,,,,/muse/elements/blink
2025-11-11 09:23:17.021,1.279236348668783,0.7985460788402121,0,1.291346790176835,1.194116380577866,0.1867960861913832,0,1.054109110236401,0.7188477504897195,0.1149802977645752,0,1.616193166179797,1.181094615560221,0.6778050449890646,0,1.683389284568146,1.212129231581705,0.393748014089689,0,0.9595775366071766,827.6190476190476,764.3589743589744,201.4652014652015,855.0183150183151,773.6263736263736,0.548340,0.003052,0.869263,-10.422668,-18.878937,1.607513,306227.106227,155357069.597070,92225128.205128,100.580505,1,2,1,4,2,90.000000
2025-11-11 09:23:17.129,,,,,,,,,,,,,,,,,,,,,,,,,,,,,,,,,,,,,,,,,,/muse/elements/blink
2025-11-11 09:23:17.715,,,,,,,,,,,,,,,,,,,,,,,,,,,,,,,,,,,,,,,,,,/muse/elements/jaw_clench
2025-11-11 09:23:18.028,1.279236348668783,0.7985460788402121,0,1.291346790176835,1.194116380577866,0.1867960861913832,0,1.054109110236401,0.7188477504897195,0.1149802977645752,0,1.616193166179797,1.181094615560221,0.6778050449890646,0,1.683389284568146,1.212129231581705,0.393748014089689,0,0.9595775366071766,850.1831501831502,754.6886446886447,541.5384615384615,872.7472527472528,790.5494505494506,0.211609,0.163452,0.815002,-20.127563,42.266388,-31.911011,314285.714286,153691355.311355,87702637.362637,100.580505,1,2,1,2,2,90.000000
2025-11-11 09:23:18.039,,,,,,,,,,,,,,,,,,,,,,,,,,,,,,,,,,,,,,,,,,/muse/elements/blink
2025-11-11 09:23:18.450,,,,,,,,,,,,,,,,,,,,,,,,,,,,,,,,,,,,,,,,,,/muse/elements/blink
2025-11-11 09:23:19.021,1.279236348668783,0.7985460788402121,0,1.291346790176835,1.194116380577866,0.1867960861913832,0,1.054109110236401,0.7188477504897195,0.1149802977645752,0,1.616193166179797,1.181094615560221,0.6778050449890646,0,1.683389284568146,1.212129231581705,0.393748014089689,0,0.9595775366071766,807.0695970695971,843.7362637362637,242.5641025641026,838.901098901099,691.025641025641,-0.009949,-0.132812,1.008484,-5.966492,-18.849030,-25.600586,311062.271062,153109523.809524,85223809.523810,95.123711,1,2,1,2,2,90.000000
2025-11-11 09:23:19.247,,,,,,,,,,,,,,,,,,,,,,,,,,,,,,,,,,,,,,,,,,/muse/elements/jaw_clench
2025-11-11 09:23:19.529,,,,,,,,,,,,,,,,,,,,,,,,,,,,,,,,,,,,,,,,,,/muse/elements/jaw_clench
2025-11-11 09:23:19.939,,,,,,,,,,,,,,,,,,,,,,,,,,,,,,,,,,,,,,,,,,/muse/elements/blink
2025-11-11 09:23:20.021,1.279236348668783,0.7985460788402121,0,1.291346790176835,1.194116380577866,0.1867960861913832,0,1.054109110236401,0.7188477504897195,0.1149802977645752,0,1.616193166179797,1.181094615560221,0.6778050449890646,0,1.683389284568146,1.212129231581705,0.393748014089689,0,0.9595775366071766,863.8827838827839,790.5494505494506,0,819.1575091575091,811.9047619047619,0.714966,0.249634,0.805176,-25.077209,-16.299438,-14.519958,317509.157509,153456849.816850,84731428.571429,87.250328,1,2,1,4,2,90.000000
2025-11-11 09:23:20.389,,,,,,,,,,,,,,,,,,,,,,,,,,,,,,,,,,,,,,,,,,/muse/elements/jaw_clench
2025-11-11 09:23:21.012,,,,,,,,,,,,,,,,,,,,,,,,,,,,,,,,,,,,,,,,,,/muse/elements/blink
2025-11-11 09:23:21.012,,,,,,,,,,,,,,,,,,,,,,,,,,,,,,,,,,,,,,,,,,/muse/elements/jaw_clench
2025-11-11 09:23:21.023,1.279236348668783,0.7985460788402121,0,1.291346790176835,1.194116380577866,0.1867960861913832,0,1.054109110236401,0.7188477504897195,0.1149802977645752,0,1.616193166179797,1.181094615560221,0.6778050449890646,0,1.683389284568146,1.212129231581705,0.393748014089689,0,0.9595775366071766,781.6849816849817,798.2051282051282,716.4102564102565,823.1868131868132,793.7728937728938,0.521912,0.066101,0.795593,-33.840027,-6.153412,-47.118835,308644.688645,153284395.604396,84544468.864469,83.059288,1,2,1,1,2,90.000000
2025-11-11 09:23:21.617,,,,,,,,,,,,,,,,,,,,,,,,,,,,,,,,,,,,,,,,,,/muse/elements/blink
2025-11-11 09:23:21.895,,,,,,,,,,,,,,,,,,,,,,,,,,,,,,,,,,,,,,,,,,/muse/elements/blink
2025-11-11 09:23:22.021,1.279236348668783,1.238242836376914,0,1.291346790176835,1.194116380577866,0.7833505795257946,0,1.054109110236401,0.7188477504897195,0.4327652764349776,0,1.616193166179797,1.181094615560221,0.1573925956447529,0,1.683389284568146,1.212129231581705,0.06970822187382431,0,0.9595775366071766,888.4615384615385,797.8021978021978,743.8095238095239,842.1245421245421,740.989010989011,0.482544,0.077148,0.859619,-30.849304,15.634003,-29.600677,311868.131868,153066813.186813,84502564.102564,80.024406,1,2,1,1,2,90.000000
2025-11-11 09:23:22.303,,,,,,,,,,,,,,,,,,,,,,,,,,,,,,,,,,,,,,,,,,/muse/elements/blink
2025-11-11 09:23:22.735,,,,,,,,,,,,,,,,,,,,,,,,,,,,,,,,,,,,,,,,,,/muse/elements/jaw_clench
2025-11-11 09:23:23.017,,,,,,,,,,,,,,,,,,,,,,,,,,,,,,,,,,,,,,,,,,/muse/elements/jaw_clench
2025-11-11 09:23:23.027,1.279236348668783,1.319954899478819,0,1.291346790176835,1.194116380577866,1.006695192642358,0,1.054109110236401,0.7188477504897195,0.6506350432232751,0,1.616193166179797,1.181094615560221,0.2597785668417145,0,1.683389284568146,1.212129231581705,0.1558969109039155,0,0.9595775366071766,639.047619047619,805.4578754578755,842.1245421245421,661.6117216117216,747.8388278388279,0.507568,0.194275,0.728699,-22.452850,3.409424,-19.514465,319926.739927,153305347.985348,84163296.703297,92.036537,1,2,1,1,2,90.000000
2025-11-11 09:23:23.211,,,,,,,,,,,,,,,,,,,,,,,,,,,,,,,,,,,,,,,,,,/muse/elements/blink
2025-11-11 09:23:23.835,,,,,,,,,,,,,,,,,,,,,,,,,,,,,,,,,,,,,,,,,,/muse/elements/blink
2025-11-11 09:23:24.021,1.279236348668783,1.298984457738492,0,1.291346790176835,1.194116380577866,1.066872000072795,0,1.054109110236401,0.7188477504897195,0.6286923278278287,0,1.616193166179797,1.181094615560221,0.3825679599530272,0,1.683389284568146,1.212129231581705,0.1942234236711456,0,0.9595775366071766,839.3040293040293,796.1904761904763,941.6483516483516,847.7655677655678,729.7069597069598,0.644409,-0.069275,0.793213,9.301147,-10.572205,19.828491,332014.652015,153456043.956044,83860293.040293,99.844902,1,2,1,1,2,90.000000
2025-11-11 09:23:24.568,,,,,,,,,,,,,,,,,,,,,,,,,,,,,,,,,,,,,,,,,,/muse/elements/blink
2025-11-11 09:23:24.742,,,,,,,,,,,,,,,,,,,,,,,,,,,,,,,,,,,,,,,,,,/muse/elements/blink
2025-11-11 09:23:24.742,,,,,,,,,,,,,,,,,,,,,,,,,,,,,,,,,,,,,,,,,,/muse/elements/jaw_clench
2025-11-11 09:23:25.021,1.279236348668783,1.298984457738492,0,1.291346790176835,1.194116380577866,1.066872000072795,0,1.054109110236401,0.7188477504897195,0.6286923278278287,0,1.616193166179797,1.181094615560221,0.3825679599530272,0,1.683389284568146,1.212129231581705,0.1942234236711456,0,0.9595775366071766,729.7069597069598,837.6923076923077,1587.142857142857,717.2161172161173,750.2564102564103,0.114380,0.130798,0.964844,13.772278,39.013977,45.100098,365860.805861,151482490.842491,84576703.296703,100.822777,1,2,1,1,2,90.000000
2025-11-11 09:23:25.044,,,,,,,,,,,,,,,,,,,,,,,,,,,,,,,,,,,,,,,,,,/muse/elements/blink
2025-11-11 09:23:26.021,1.279236348668783,1.298984457738492,0,1.291346790176835,1.194116380577866,1.066872000072795,0,1.054109110236401,0.7188477504897195,0.6286923278278287,0,1.616193166179797,1.181094615560221,0.3825679599530272,0,1.683389284568146,1.212129231581705,0.1942234236711456,0,0.9595775366071766,703.1135531135532,661.6117216117216,615.6776556776557,658.3882783882784,680.1465201465202,-0.063782,0.027893,1.031799,9.779663,-2.205658,20.643463,798608.058608,154432747.252747,83624175.824176,93.866409,1,2,1,4,2,90.000000
2025-11-11 09:23:26.164,,,,,,,,,,,,,,,,,,,,,,,,,,,,,,,,,,,,,,,,,,/muse/elements/blink
2025-11-11 09:23:26.999,,,,,,,,,,,,,,,,,,,,,,,,,,,,,,,,,,,,,,,,,,/muse/elements/blink
2025-11-11 09:23:27.030,1.279236348668783,1.298984457738492,0,1.291346790176835,1.194116380577866,1.066872000072795,0,1.054109110236401,0.7188477504897195,0.6286923278278287,0,1.616193166179797,1.181094615560221,0.3825679599530272,0,1.683389284568146,1.212129231581705,0.1942234236711456,0,0.9595775366071766,823.1868131868132,855.8241758241759,887.2527472527473,789.7435897435897,777.2527472527473,0.274536,0.126099,0.863892,19.080811,-1.996307,61.362152,319120.879121,151184322.344322,84998168.498168,93.866409,1,2,1,4,2,90.000000
2025-11-11 09:23:27.170,,,,,,,,,,,,,,,,,,,,,,,,,,,,,,,,,,,,,,,,,,/muse/elements/jaw_clench
2025-11-11 09:23:27.368,,,,,,,,,,,,,,,,,,,,,,,,,,,,,,,,,,,,,,,,,,/muse/elements/blink
2025-11-11 09:23:27.713,,,,,,,,,,,,,,,,,,,,,,,,,,,,,,,,,,,,,,,,,,/muse/elements/blink
2025-11-11 09:23:28.021,1.279236348668783,1.298984457738492,0,1.291346790176835,1.194116380577866,1.066872000072795,0,1.054109110236401,0.7188477504897195,0.6286923278278287,0,1.616193166179797,1.181094615560221,0.3825679599530272,0,1.683389284568146,1.212129231581705,0.1942234236711456,0,0.9595775366071766,704.7252747252747,815.934065934066,792.967032967033,705.1282051282052,787.7289377289378,0.495667,0.098938,0.876404,6.407623,3.394470,15.133057,323150.183150,151961978.021978,83385641.025641,93.866409,1,2,1,1,2,90.000000
2025-11-11 09:23:28.209,,,,,,,,,,,,,,,,,,,,,,,,,,,,,,,,,,,,,,,,,,/muse/elements/blink
2025-11-11 09:23:28.490,,,,,,,,,,,,,,,,,,,,,,,,,,,,,,,,,,,,,,,,,,/muse/elements/blink
2025-11-11 09:23:28.923,,,,,,,,,,,,,,,,,,,,,,,,,,,,,,,,,,,,,,,,,,/muse/elements/blink
2025-11-11 09:23:29.021,1.279236348668783,1.298984457738492,0,1.291346790176835,1.194116380577866,1.066872000072795,0,1.054109110236401,0.7188477504897195,0.6286923278278287,0,1.616193166179797,1.181094615560221,0.3825679599530272,0,1.683389284568146,1.212129231581705,0.1942234236711456,0,0.9595775366071766,821.1721611721612,800.2197802197802,935.2014652014652,778.0586080586081,720.0366300366301,0.470215,0.000732,0.921448,7.514191,-9.817047,37.765350,323956.043956,151746813.186813,82736923.076923,93.866409,1,2,1,2,2,90.000000
2025-11-11 09:23:30.021,1.279236348668783,0.9671573109516101,0,1.291346790176835,1.194116380577866,0.7187149008647572,0,1.054109110236401,0.7188477504897195,0.2129364553684356,0,1.616193166179797,1.181094615560221,0.1271569751498275,0,1.683389284568146,1.212129231581705,-0.01655894504770326,0,0.9595775366071766,792.967032967033,785.3113553113553,956.1538461538462,795.7875457875458,596.7399267399268,0.429443,0.111755,0.883545,22.378082,-9.106750,48.315125,329597.069597,151615457.875458,82184908.424908,93.866409,1,2,1,2,2,90.000000
2025-11-11 09:23:30.323,,,,,,,,,,,,,,,,,,,,,,,,,,,,,,,,,,,,,,,,,,/muse/elements/blink
2025-11-11 09:23:30.843,,,,,,,,,,,,,,,,,,,,,,,,,,,,,,,,,,,,,,,,,,/muse/elements/blink
2025-11-11 09:23:31.021,1.279236348668783,0.8700750502883045,0,1.291346790176835,1.194116380577866,0.7421691943465402,0,1.054109110236401,0.7188477504897195,0.5813271487945503,0,1.616193166179797,1.181094615560221,0.1601312216044447,0,1.683389284568146,1.212129231581705,-0.005346400347989144,0,0.9595775366071766,850.1831501831502,785.7142857142858,748.6446886446887,804.6520146520147,689.8168498168499,0.469177,0.004761,0.851562,12.366638,-6.220703,-2.534637,342490.842491,151871721.611722,82359780.219780,93.866409,1,2,1,1,2,90.000000
2025-11-11 09:23:32.021,1.279236348668783,0.8517140120646985,0,1.291346790176835,1.194116380577866,0.6876278629359234,0,1.054109110236401,0.7188477504897195,0.5016898019834705,0,1.616193166179797,1.181094615560221,0.3819070289431974,0,1.683389284568146,1.212129231581705,0.2406999372804146,0,0.9595775366071766,772.4175824175825,828.8278388278388,738.974358974359,787.7289377289378,601.5750915750916,0.475159,0.062073,0.882080,-12.650757,6.003876,-3.446808,326373.626374,151612234.432234,82681318.681319,91.271164,1,2,1,2,2,90.000000
2025-11-11 09:23:32.867,,,,,,,,,,,,,,,,,,,,,,,,,,,,,,,,,,,,,,,,,,/muse/elements/blink
2025-11-11 09:23:33.021,1.49312337797523,0.8517140120646985,0,1.291346790176835,1.210364912536556,0.6876278629359234,0,1.054109110236401,1.687246562370746,0.5016898019834705,0,1.616193166179797,1.214360679604532,0.3819070289431974,0,1.683389284568146,1.107008903866727,0.2406999372804146,0,0.9595775366071766,791.7582417582418,772.4175824175825,655.1648351648352,766.3736263736264,646.3003663003664,0.555054,0.090210,0.723328,-17.293854,3.910370,-34.086761,319926.739927,151516336.996337,84091575.091575,89.906235,1,1,1,2,1,90.000000
2025-11-11 09:23:34.021,1.327878214221555,0.8517140120646985,0,1.291346790176835,0.9203293069122234,0.6876278629359234,0,1.054109110236401,1.41644999715815,0.5016898019834705,0,1.616193166179797,0.8341809343169689,0.3819070289431974,0,1.683389284568146,1.049279919689796,0.2406999372804146,0,0.9595775366071766,836.8864468864469,738.974358974359,773.2234432234433,826.8131868131868,831.6483516483516,0.502686,0.036377,0.795227,-12.718048,0.575714,-44.987946,329597.069597,151352747.252747,84008571.428571,89.906235,1,1,1,2,1,90.000000
2025-11-11 09:23:34.075,,,,,,,,,,,,,,,,,,,,,,,,,,,,,,,,,,,,,,,,,,/muse/elements/blink
2025-11-11 09:23:34.397,,,,,,,,,,,,,,,,,,,,,,,,,,,,,,,,,,,,,,,,,,/muse/elements/blink
2025-11-11 09:23:35.028,1.327878214221555,0.8517140120646985,0,1.291346790176835,0.9203293069122234,0.6876278629359234,0,1.054109110236401,1.41644999715815,0.5016898019834705,0,1.616193166179797,0.8341809343169689,0.3819070289431974,0,1.683389284568146,1.049279919689796,0.2406999372804146,0,0.9595775366071766,796.1904761904763,811.5018315018315,717.6190476190476,780.8791208791209,720.4395604395604,0.429321,0.193604,0.847046,-26.520233,-5.428162,-37.989655,334432.234432,151082783.882784,84840219.780220,89.906235,1,1,1,2,1,90.000000
2025-11-11 09:23:35.811,,,,,,,,,,,,,,,,,,,,,,,,,,,,,,,,,,,,,,,,,,/muse/elements/blink
2025-11-11 09:23:36.020,1.223896753661925,0.8517140120646985,0,1.335591130847914,1.298027400496232,0.6876278629359234,0,1.479074935346586,1.670219792910793,0.5016898019834705,0,1.107474569827644,1.472470867901867,0.3819070289431974,0,0.9686521631150067,1.253098977967713,0.2406999372804146,0,0.7799092731361279,801.025641025641,801.4285714285714,1114.102564102564,779.6703296703297,667.6556776556777,0.351013,0.050842,0.917908,-19.327545,4.381409,-51.447906,316703.296703,151132747.252747,84097216.117216,89.906235,1,1,1,2,1,90.000000
2025-11-11 09:23:36.758,,,,,,,,,,,,,,,,,,,,,,,,,,,,,,,,,,,,,,,,,,/muse/elements/jaw_clench
2025-11-11 09:23:36.931,,,,,,,,,,,,,,,,,,,,,,,,,,,,,,,,,,,,,,,,,,/muse/elements/blink
2025-11-11 09:23:37.021,1.223896753661925,0.8517140120646985,0,1.376916642087285,1.298027400496232,0.6876278629359234,0,1.527998606936619,1.670219792910793,0.5016898019834705,0,1.15186890558078,1.472470867901867,0.3819070289431974,0,0.9362467500129751,1.253098977967713,0.2406999372804146,0,0.780459129293249,805.4578754578755,781.6849816849817,920.6959706959707,846.5567765567765,743.0036630036631,0.304749,0.079773,0.959351,-22.550049,13.704987,-26.168823,316703.296703,151133553.113553,83840952.380952,117.107643,1,1,1,2,1,90.000000
2025-11-11 09:23:37.641,,,,,,,,,,,,,,,,,,,,,,,,,,,,,,,,,,,,,,,,,,/muse/elements/blink
2025-11-11 09:23:37.835,,,,,,,,,,,,,,,,,,,,,,,,,,,,,,,,,,,,,,,,,,/muse/elements/blink
2025-11-11 09:23:38.021,1.258085962571332,0.8517140120646985,0,1.501712097792128,1.355406461525283,0.6876278629359234,0,1.704663206250064,1.644375774978806,0.5016898019834705,0,1.14696307450679,1.45656837920799,0.3819070289431974,0,0.8519044153615001,1.256005980241254,0.2406999372804146,0,0.7412962049261406,635.0183150183151,829.2307692307693,596.7399267399268,697.4725274725275,566.9230769230769,0.420593,0.167908,0.986877,-5.824432,-21.301422,-26.946411,328791.208791,151311648.351648,83596776.556777,111.849449,1,1,1,2,1,90.000000
2025-11-11 09:23:38.153,,,,,,,,,,,,,,,,,,,,,,,,,,,,,,,,,,,,,,,,,,/muse/elements/blink
2025-11-11 09:23:38.431,,,,,,,,,,,,,,,,,,,,,,,,,,,,,,,,,,,,,,,,,,/muse/elements/blink
2025-11-11 09:23:38.944,,,,,,,,,,,,,,,,,,,,,,,,,,,,,,,,,,,,,,,,,,/muse/elements/blink
2025-11-11 09:23:39.021,1.258085962571332,0.8517140120646985,0,1.501712097792128,1.355406461525283,0.6876278629359234,0,1.704663206250064,1.644375774978806,0.5016898019834705,0,1.14696307450679,1.45656837920799,0.3819070289431974,0,0.8519044153615001,1.256005980241254,0.2406999372804146,0,0.7412962049261406,866.3003663003664,805.0549450549451,1091.538461538462,890.0732600732601,664.4322344322344,0.447510,-0.053772,0.957397,4.628143,1.248627,7.529144,356190.476190,151444615.384615,85708937.728938,100.184464,1,2,1,2,2,90.000000
2025-11-11 09:23:39.374,,,,,,,,,,,,,,,,,,,,,,,,,,,,,,,,,,,,,,,,,,/muse/elements/blink
2025-11-11 09:23:39.675,,,,,,,,,,,,,,,,,,,,,,,,,,,,,,,,,,,,,,,,,,/muse/elements/blink
2025-11-11 09:23:40.021,1.258085962571332,0.8517140120646985,0,1.501712097792128,1.355406461525283,0.6876278629359234,0,1.704663206250064,1.644375774978806,0.5016898019834705,0,1.14696307450679,1.45656837920799,0.3819070289431974,0,0.8519044153615001,1.256005980241254,0.2406999372804146,0,0.7412962049261406,842.9304029304029,894.908424908425,1415.897435897436,843.7362637362637,662.014652014652,-0.033691,0.089355,0.933716,-10.445099,37.653198,46.804810,401318.681319,151298754.578755,90877728.937729,92.943077,1,2,1,2,2,90.000000
2025-11-11 09:23:40.085,,,,,,,,,,,,,,,,,,,,,,,,,,,,,,,,,,,,,,,,,,/muse/elements/blink
2025-11-11 09:23:40.407,,,,,,,,,,,,,,,,,,,,,,,,,,,,,,,,,,,,,,,,,,/muse/elements/jaw_clench
2025-11-11 09:23:41.021,1.258085962571332,0.8517140120646985,0,1.501712097792128,1.355406461525283,0.6876278629359234,0,1.704663206250064,1.644375774978806,0.5016898019834705,0,1.14696307450679,1.45656837920799,0.3819070289431974,0,0.8519044153615001,1.256005980241254,0.2406999372804146,0,0.7412962049261406,786.1172161172161,782.4908424908425,1053.663003663004,777.2527472527473,563.6996336996338,-0.282898,0.005432,0.893433,-4.553375,-2.773895,25.002441,506080.586081,150337362.637363,85484908.424908,92.012337,1,2,1,2,2,90.000000
2025-11-11 09:23:41.809,,,,,,,,,,,,,,,,,,,,,,,,,,,,,,,,,,,,,,,,,,/muse/elements/blink
