TimeStamp,Delta_TP9,Delta_AF7,Delta_AF8,Delta_TP10,Theta_TP9,Theta_AF7,Theta_AF8,Theta_TP10,Alpha_TP9,Alpha_AF7,Alpha_AF8,Alpha_TP10,Beta_TP9,Beta_AF7,Beta_AF8,Beta_TP10,Gamma_TP9,Gamma_AF7,Gamma_AF8,Gamma_TP10,RAW_TP9,RAW_AF7,RAW_AF8,RAW_TP10,AUX_RIGHT,Accelerometer_X,Accelerometer_Y,Accelerometer_Z,Gyro_X,Gyro_Y,Gyro_Z,PPG_Ambient,PPG_IR,PPG_Red,Heart_Rate,HeadBandOn,HSI_TP9,HSI_AF7,HSI_AF8,HSI_TP10,Battery,Elements
2025-11-11 10:37:19.525,,,,,,,,,,,,,,,,,,,,,,,,,,,,,,,,,,,,,,,,,,/muse/event/connected Muse-135C
2025-11-11 10:37:19.803,,,,,,,,,,,,,,,,,,,,,,,,,,,,,,,,,,,,,,,,,,/muse/elements/blink
2025-11-11 10:37:20.419,,,,,,,,,,,,,,,,,,,,,,,,,,,,,,,,,,,,,,,,,,/muse/elements/blink
2025-11-11 10:37:20.526,1.231031731278664,0.2057666606336317,0.5634417812445915,1.291735983768538,1.064467025445756,0.09564858864156034,0.3638111610579874,1.159805786902506,1.378234679787286,0.2258211037950288,0.1747351780200819,0.9920558550318678,1.375532453466478,1.387733613585643,0.5098588162458721,0.8500466772409966,1.049939118717351,1.038672056203928,0.3012300528108162,0.8835813535109831,821.5750915750916,786.5201465201466,792.967032967033,837.2893772893773,861.8681318681319,0.188354,0.053101,0.973694,-2.646790,-0.770111,46.176758,319120.879121,137984322.344322,68451428.571429,88.791634,1,1,1,1,1,50.000000
2025-11-11 10:37:21.273,,,,,,,,,,,,,,,,,,,,,,,,,,,,,,,,,,,,,,,,,,/muse/elements/blink
2025-11-11 10:37:21.526,1.231031731278664,0.2057666606336317,0.5634417812445915,1.353078494074794,1.064467025445756,0.09564858864156034,0.3638111610579874,1.226248182309785,1.378234679787286,0.2258211037950288,0.1747351780200819,0.9728615637313573,1.375532453466478,1.387733613585643,0.5098588162458721,0.8700337408171425,1.049939118717351,1.038672056203928,0.3012300528108162,0.9116302203482468,777.2527472527473,154.3223443223443,804.6520146520147,793.3699633699634,662.014652014652,0.199829,0.052551,1.077209,12.217102,6.676788,25.077209,327179.487179,138016556.776557,68483663.003663,89.256996,1,1,1,1,1,50.000000
2025-11-11 10:37:21.653,,,,,,,,,,,,,,,,,,,,,,,,,,,,,,,,,,,,,,,,,,/muse/elements/blink
2025-11-11 10:37:21.889,,,,,,,,,,,,,,,,,,,,,,,,,,,,,,,,,,,,,,,,,,/muse/elements/blink
2025-11-11 10:37:22.484,,,,,,,,,,,,,,,,,,,,,,,,,,,,,,,,,,,,,,,,,,/muse/elements/blink
2025-11-11 10:37:22.525,1.231031731278664,0.2057666606336317,0.5634417812445915,1.353078494074794,1.064467025445756,0.09564858864156034,0.3638111610579874,1.226248182309785,1.378234679787286,0.2258211037950288,0.1747351780200819,0.9728615637313573,1.375532453466478,1.387733613585643,0.5098588162458721,0.8700337408171425,1.049939118717351,1.038672056203928,0.3012300528108162,0.9116302203482468,805.0549450549451,755.8974358974359,784.1025641025641,772.014652014652,707.948717948718,0.045349,0.042542,0.927734,1.929016,6.273041,7.686157,328791.208791,138090695.970696,68360366.300366,87.346497,1,2,1,1,2,50.000000
2025-11-11 10:37:23.525,1.231031731278664,0.2057666606336317,0.5634417812445915,1.353078494074794,1.064467025445756,0.09564858864156034,0.3638111610579874,1.226248182309785,1.378234679787286,0.2258211037950288,0.1747351780200819,0.9728615637313573,1.375532453466478,1.387733613585643,0.5098588162458721,0.8700337408171425,1.049939118717351,1.038672056203928,0.3012300528108162,0.9116302203482468,850.5860805860806,725.6776556776557,882.014652014652,878.7912087912089,710.3663003663004,0.169922,0.137085,1.013062,-2.011261,-17.174225,31.155853,332820.512821,137819120.879121,68278974.358974,87.346497,1,2,1,1,2,50.000000
2025-11-11 10:37:24.086,,,,,,,,,,,,,,,,,,,,,,,,,,,,,,,,,,,,,,,,,,/muse/elements/blink
2025-11-11 10:37:24.526,1.231031731278664,0.2057666606336317,0.5634417812445915,1.353078494074794,1.064467025445756,0.09564858864156034,0.3638111610579874,1.226248182309785,1.378234679787286,0.2258211037950288,0.1747351780200819,0.9728615637313573,1.375532453466478,1.387733613585643,0.5098588162458721,0.8700337408171425,1.049939118717351,1.038672056203928,0.3012300528108162,0.9116302203482468,811.9047619047619,929.1575091575091,822.3809523809524,797.3992673992674,574.1758241758242,-0.091919,0.014343,0.961121,-4.942169,-4.291687,-2.317810,363443.223443,138452527.472527,68714139.194139,87.346497,1,2,1,1,2,50.000000
2025-11-11 10:37:24.936,,,,,,,,,,,,,,,,,,,,,,,,,,,,,,,,,,,,,,,,,,/muse/elements/blink
2025-11-11 10:37:25.213,,,,,,,,,,,,,,,,,,,,,,,,,,,,,,,,,,,,,,,,,,/muse/elements/blink
2025-11-11 10:37:25.445,,,,,,,,,,,,,,,,,,,,,,,,,,,,,,,,,,,,,,,,,,/muse/elements/blink
2025-11-11 10:37:25.526,1.231031731278664,0.2057666606336317,0.5634417812445915,1.353078494074794,1.064467025445756,0.09564858864156034,0.3638111610579874,1.226248182309785,1.378234679787286,0.2258211037950288,0.1747351780200819,0.9728615637313573,1.375532453466478,1.387733613585643,0.5098588162458721,0.8700337408171425,1.049939118717351,1.038672056203928,0.3012300528108162,0.9116302203482468,815.1282051282052,720.4395604395604,789.3406593406594,804.6520146520147,689.4139194139194,0.142517,0.097046,0.970581,-3.723450,-13.996582,-17.024689,358608.058608,138529890.109890,68452234.432234,87.346497,1,2,1,1,2,50.000000
2025-11-11 10:37:26.425,,,,,,,,,,,,,,,,,,,,,,,,,,,,,,,,,,,,,,,,,,/muse/elements/blink
2025-11-11 10:37:26.526,1.231031731278664,0.2057666606336317,0.8820367002943522,1.353078494074794,1.064467025445756,0.09564858864156034,0.5455472119060526,1.226248182309785,1.378234679787286,0.2258211037950288,0.5184098458526982,0.9728615637313573,1.375532453466478,1.387733613585643,0.7210892512522303,0.8700337408171425,1.049939118717351,1.038672056203928,0.543503842204011,0.9116302203482468,780.4761904761905,740.989010989011,805.8608058608058,811.9047619047619,813.1135531135532,0.223389,0.008972,0.980591,-2.243042,1.128998,-18.662109,328791.208791,138769230.769231,68816483.516484,87.346497,1,2,1,1,2,50.000000
2025-11-11 10:37:26.852,,,,,,,,,,,,,,,,,,,,,,,,,,,,,,,,,,,,,,,,,,/muse/elements/blink
2025-11-11 10:37:27.525,1.231031731278664,0.2057666606336317,1.033626453812746,1.353078494074794,1.064467025445756,0.09564858864156034,0.6541412413124988,1.226248182309785,1.378234679787286,0.2258211037950288,0.6543845034601625,0.9728615637313573,1.375532453466478,1.387733613585643,0.6983082980431907,0.8700337408171425,1.049939118717351,1.038672056203928,0.5731219638568038,0.9116302203482468,828.021978021978,778.8644688644689,805.0549450549451,778.4615384615385,609.6336996336996,0.134949,0.061890,1.007690,-8.022614,-10.684357,-21.727600,341684.981685,139042417.582418,69281465.201465,86.474922,1,2,1,1,2,50.000000
2025-11-11 10:37:28.364,,,,,,,,,,,,,,,,,,,,,,,,,,,,,,,,,,,,,,,,,,/muse/elements/blink
2025-11-11 10:37:28.526,1.231031731278664,0.2057666606336317,0.9434968076995702,1.353078494074794,1.064467025445756,0.09564858864156034,0.4458511859071776,1.226248182309785,1.378234679787286,0.2258211037950288,0.3071288709585597,0.9728615637313573,1.375532453466478,1.387733613585643,0.5561723973083786,0.8700337408171425,1.049939118717351,1.038672056203928,0.3338399997002527,0.9116302203482468,767.1794871794872,727.6923076923077,789.7435897435897,783.2967032967033,594.7252747252747,0.261780,-0.020752,0.964783,-16.277008,1.988831,-43.903809,328791.208791,138828058.608059,69504688.644689,82.218010,1,2,1,1,2,50.000000
2025-11-11 10:37:29.282,,,,,,,,,,,,,,,,,,,,,,,,,,,,,,,,,,,,,,,,,,/muse/elements/blink
2025-11-11 10:37:29.526,1.42556990658315,0.2057666606336317,1.245131688818822,1.353078494074794,1.196093739546577,0.09564858864156034,0.8554095167166362,1.226248182309785,1.534460020051397,0.2258211037950288,0.7726358533440097,0.9728615637313573,1.406181641627857,1.387733613585643,0.6307404817360295,0.8700337408171425,0.8290784934109594,1.038672056203928,0.3408540196670841,0.9116302203482468,816.3369963369963,782.0879120879121,801.8315018315019,811.5018315018315,786.9230769230769,0.319519,-0.026184,0.849243,-9.248810,7.633820,-32.598877,315091.575092,139008571.428571,69592527.472527,82.218010,1,1,1,1,1,50.000000
2025-11-11 10:37:30.197,,,,,,,,,,,,,,,,,,,,,,,,,,,,,,,,,,,,,,,,,,/muse/elements/blink
2025-11-11 10:37:30.526,1.42556990658315,0.2057666606336317,1.206138920829695,1.353078494074794,1.196093739546577,0.09564858864156034,0.9008234195535885,1.226248182309785,1.534460020051397,0.2258211037950288,0.7810818703476856,0.9728615637313573,1.406181641627857,1.387733613585643,0.6483534789651957,0.8700337408171425,0.8290784934109594,1.038672056203928,0.3834666302037944,0.9116302203482468,695.0549450549451,825.2014652014652,763.956043956044,698.6813186813187,710.7692307692308,0.296082,0.087036,0.970642,-5.443115,-14.863892,-43.993530,314285.714286,138877216.117216,69545787.545788,90.727417,1,1,1,1,1,50.000000
2025-11-11 10:37:30.686,,,,,,,,,,,,,,,,,,,,,,,,,,,,,,,,,,,,,,,,,,/muse/elements/blink
2025-11-11 10:37:31.529,1.42556990658315,0.2057666606336317,1.153139524691389,1.353078494074794,1.196093739546577,0.09564858864156034,0.811591263965727,1.226248182309785,1.534460020051397,0.2258211037950288,0.6147284930195021,0.9728615637313573,1.406181641627857,1.387733613585643,0.5099747545760349,0.8700337408171425,0.8290784934109594,1.038672056203928,0.1683903180634661,0.9116302203482468,793.7728937728938,751.4652014652015,794.981684981685,811.9047619047619,824.7985347985348,0.261475,-0.000366,0.945068,-5.674896,-6.063690,-25.421143,316703.296703,138875604.395604,69643296.703297,89.841331,1,1,1,1,1,50.000000
2025-11-11 10:37:32.417,,,,,,,,,,,,,,,,,,,,,,,,,,,,,,,,,,,,,,,,,,/muse/elements/blink
2025-11-11 10:37:32.533,1.42556990658315,0.2057666606336317,0.8317678724589895,1.353078494074794,1.196093739546577,0.09564858864156034,0.6302489823732854,1.226248182309785,1.534460020051397,0.2258211037950288,0.8419031008754044,0.9728615637313573,1.406181641627857,1.387733613585643,0.7781914950987292,0.8700337408171425,0.8290784934109594,1.038672056203928,0.3485850547145251,0.9116302203482468,798.6080586080586,796.1904761904763,804.2490842490843,792.1611721611722,807.4725274725275,0.276306,0.068176,0.933044,-8.478699,-4.635620,-22.093964,326373.626374,139036776.556777,69625567.765568,86.730270,1,2,1,1,2,50.000000
2025-11-11 10:37:33.223,,,,,,,,,,,,,,,,,,,,,,,,,,,,,,,,,,,,,,,,,,/muse/elements/blink
2025-11-11 10:37:33.532,1.42556990658315,0.2057666606336317,0.8357500613292775,1.353078494074794,1.196093739546577,0.09564858864156034,0.661345057933231,1.226248182309785,1.534460020051397,0.2258211037950288,0.8871381197747105,0.9728615637313573,1.406181641627857,1.387733613585643,0.6927284410233893,0.8700337408171425,0.8290784934109594,1.038672056203928,0.3965958624149087,0.9116302203482468,792.967032967033,843.3333333333334,803.4432234432235,787.7289377289378,611.2454212454213,0.171143,-0.041992,0.980591,-2.766418,1.667328,-10.430145,336849.816850,139019047.619048,69613479.853480,86.730270,1,2,1,1,2,50.000000
2025-11-11 10:37:34.525,1.42556990658315,0.2057666606336317,0.7143389188876825,1.353078494074794,1.196093739546577,0.09564858864156034,0.5182113165200928,1.226248182309785,1.534460020051397,0.2258211037950288,0.809995847208254,0.9728615637313573,1.406181641627857,1.387733613585643,0.6131994473192927,0.8700337408171425,0.8290784934109594,1.038672056203928,0.48036748039294,0.9116302203482468,799.4139194139194,803.040293040293,813.5164835164835,791.3553113553114,671.6849816849817,0.238831,0.097107,0.986938,2.093506,3.491669,18.834076,372307.692308,139156849.816850,69517582.417582,83.376640,1,2,1,1,2,50.000000
2025-11-11 10:37:34.588,,,,,,,,,,,,,,,,,,,,,,,,,,,,,,,,,,,,,,,,,,/muse/elements/blink
2025-11-11 10:37:35.533,1.42556990658315,0.2057666606336317,0.3325488803200403,1.353078494074794,1.196093739546577,0.09564858864156034,0.3834952389399179,1.226248182309785,1.534460020051397,0.2258211037950288,0.166310619324999,0.9728615637313573,1.406181641627857,1.387733613585643,0.5322467029563325,0.8700337408171425,0.8290784934109594,1.038672056203928,0.2918103221051332,0.9116302203482468,846.5567765567765,931.978021978022,749.4505494505495,853.8095238095239,784.5054945054945,0.052368,0.085876,1.058228,8.583374,14.445190,12.232056,447252.747253,139502564.102564,69797216.117216,82.378548,1,2,1,1,2,50.000000
2025-11-11 10:37:35.587,,,,,,,,,,,,,,,,,,,,,,,,,,,,,,,,,,,,,,,,,,/muse/elements/blink
2025-11-11 10:37:35.990,,,,,,,,,,,,,,,,,,,,,,,,,,,,,,,,,,,,,,,,,,/muse/elements/blink
2025-11-11 10:37:36.268,,,,,,,,,,,,,,,,,,,,,,,,,,,,,,,,,,,,,,,,,,/muse/elements/blink
2025-11-11 10:37:36.525,1.42556990658315,0.2057666606336317,0.3495833498109148,1.353078494074794,1.196093739546577,0.09564858864156034,0.4263615426682766,1.226248182309785,1.534460020051397,0.2258211037950288,0.04548082474153992,0.9728615637313573,1.406181641627857,1.387733613585643,0.4930849690195543,0.8700337408171425,0.8290784934109594,1.038672056203928,0.3558402692215569,0.9116302203482468,826.8131868131868,796.1904761904763,805.8608058608058,779.2673992673992,644.2857142857143,0.147156,0.148193,0.986572,12.082520,-7.663727,59.956512,660805.860806,139164102.564103,69241172.161172,83.204727,1,2,1,1,2,50.000000
2025-11-11 10:37:37.530,1.42556990658315,0.2057666606336317,0.3495833498109148,1.353078494074794,1.196093739546577,0.09564858864156034,0.4263615426682766,1.226248182309785,1.534460020051397,0.2258211037950288,0.04548082474153992,0.9728615637313573,1.406181641627857,1.387733613585643,0.4930849690195543,0.8700337408171425,0.8290784934109594,1.038672056203928,0.3558402692215569,0.9116302203482468,785.3113553113553,791.3553113553114,818.7545787545788,780.4761904761905,647.5091575091575,0.295837,0.112122,0.955261,6.332855,5.301056,18.654633,331208.791209,139323663.003663,69239560.439560,83.275925,1,2,1,1,2,50.000000
2025-11-11 10:37:37.819,,,,,,,,,,,,,,,,,,,,,,,,,,,,,,,,,,,,,,,,,,/muse/elements/blink
2025-11-11 10:37:38.246,,,,,,,,,,,,,,,,,,,,,,,,,,,,,,,,,,,,,,,,,,/muse/elements/blink
2025-11-11 10:37:38.531,1.42556990658315,0.2057666606336317,0.3495833498109148,1.353078494074794,1.196093739546577,0.09564858864156034,0.4263615426682766,1.226248182309785,1.534460020051397,0.2258211037950288,0.04548082474153992,0.9728615637313573,1.406181641627857,1.387733613585643,0.4930849690195543,0.8700337408171425,0.8290784934109594,1.038672056203928,0.3558402692215569,0.9116302203482468,801.4285714285714,723.6630036630037,830.4395604395604,821.978021978022,756.3003663003664,0.224121,0.033875,0.968811,-3.342133,-10.101166,57.220001,319926.739927,139223736.263736,69017142.857143,102.831879,1,2,1,1,2,50.000000
2025-11-11 10:37:39.479,,,,,,,,,,,,,,,,,,,,,,,,,,,,,,,,,,,,,,,,,,/muse/elements/blink
2025-11-11 10:37:39.525,1.42556990658315,0.2057666606336317,0.3495833498109148,1.353078494074794,1.196093739546577,0.09564858864156034,0.4263615426682766,1.226248182309785,1.534460020051397,0.2258211037950288,0.04548082474153992,0.9728615637313573,1.406181641627857,1.387733613585643,0.4930849690195543,0.8700337408171425,0.8290784934109594,1.038672056203928,0.3558402692215569,0.9116302203482468,832.0512820512821,491.1721611721612,797.8021978021978,826.007326007326,656.3736263736264,0.181702,0.051147,0.963013,1.786957,-2.265472,15.155487,323150.183150,139177802.197802,68896263.736264,102.831879,1,2,1,1,2,50.000000
2025-11-11 10:37:40.394,,,,,,,,,,,,,,,,,,,,,,,,,,,,,,,,,,,,,,,,,,/muse/elements/blink
2025-11-11 10:37:40.525,1.42556990658315,0.2057666606336317,0.3495833498109148,1.353078494074794,1.196093739546577,0.09564858864156034,0.4263615426682766,1.226248182309785,1.534460020051397,0.2258211037950288,0.04548082474153992,0.9728615637313573,1.406181641627857,1.387733613585643,0.4930849690195543,0.8700337408171425,0.8290784934109594,1.038672056203928,0.3558402692215569,0.9116302203482468,813.1135531135532,767.1794871794872,806.6666666666667,805.4578754578755,869.5238095238095,0.174866,-0.010376,0.995422,6.729126,13.667603,17.690125,327985.347985,139035164.835165,68724615.384615,104.090393,1,2,1,1,2,50.000000
2025-11-11 10:37:40.863,,,,,,,,,,,,,,,,,,,,,,,,,,,,,,,,,,,,,,,,,,/muse/elements/blink
2025-11-11 10:37:41.375,,,,,,,,,,,,,,,,,,,,,,,,,,,,,,,,,,,,,,,,,,/muse/elements/blink
2025-11-11 10:37:41.535,1.42556990658315,0.2057666606336317,0.3495833498109148,1.353078494074794,1.196093739546577,0.09564858864156034,0.4263615426682766,1.226248182309785,1.534460020051397,0.2258211037950288,0.04548082474153992,0.9728615637313573,1.406181641627857,1.387733613585643,0.4930849690195543,0.8700337408171425,0.8290784934109594,1.038672056203928,0.3558402692215569,0.9116302203482468,832.0512820512821,817.1428571428571,808.2783882783883,829.2307692307693,789.3406593406594,-0.011963,0.074890,0.934937,4.538422,3.259888,37.653198,344102.564103,138760366.300366,68264468.864469,104.090393,1,2,1,1,2,50.000000
2025-11-11 10:37:42.526,1.42556990658315,0.2057666606336317,0.8596385380202264,1.353078494074794,1.196093739546577,0.09564858864156034,0.3438420746581701,1.226248182309785,1.534460020051397,0.2258211037950288,0.5565549121791178,0.9728615637313573,1.406181641627857,1.387733613585643,0.8362927484049942,0.8700337408171425,0.8290784934109594,1.038672056203928,0.7754646115103502,0.9116302203482468,788.1318681318681,689.4139194139194,824.3956043956044,778.0586080586081,611.6483516483516,0.171387,0.075500,0.929138,-0.583191,5.585175,2.198181,344908.424908,139111721.611722,68497362.637363,96.272552,1,2,1,1,2,50.000000
2025-11-11 10:37:42.788,,,,,,,,,,,,,,,,,,,,,,,,,,,,,,,,,,,,,,,,,,/muse/elements/blink
2025-11-11 10:37:43.301,,,,,,,,,,,,,,,,,,,,,,,,,,,,,,,,,,,,,,,,,,/muse/elements/blink
2025-11-11 10:37:43.529,1.42556990658315,0.2057666606336317,0.9867960553969283,1.353078494074794,1.196093739546577,0.09564858864156034,0.3323966445583615,1.226248182309785,1.534460020051397,0.2258211037950288,0.4735893774683509,0.9728615637313573,1.406181641627857,1.387733613585643,0.8435039926398216,0.8700337408171425,0.8290784934109594,1.038672056203928,0.4123688053918734,0.9116302203482468,698.6813186813187,853.4065934065934,795.3846153846154,720.0366300366301,621.7216117216118,0.095154,0.040466,0.891846,4.299164,-12.082520,6.048737,336849.816850,139003736.263736,68375677.655678,95.733040,1,2,1,1,2,50.000000
2025-11-11 10:37:43.728,,,,,,,,,,,,,,,,,,,,,,,,,,,,,,,,,,,,,,,,,,/muse/elements/blink
2025-11-11 10:37:44.092,,,,,,,,,,,,,,,,,,,,,,,,,,,,,,,,,,,,,,,,,,/muse/elements/blink
2025-11-11 10:37:44.515,,,,,,,,,,,,,,,,,,,,,,,,,,,,,,,,,,,,,,,,,,/muse/elements/blink
2025-11-11 10:37:44.525,1.42556990658315,0.2057666606336317,1.011349474430417,1.353078494074794,1.196093739546577,0.09564858864156034,0.1860101143117826,1.226248182309785,1.534460020051397,0.2258211037950288,0.2685624553870935,0.9728615637313573,1.406181641627857,1.387733613585643,0.9524407851865166,0.8700337408171425,0.8290784934109594,1.038672056203928,0.3175920354786424,0.9116302203482468,832.0512820512821,721.2454212454213,797.8021978021978,851.3919413919414,730.1098901098901,0.212341,0.069580,0.981262,-4.486084,-21.570587,-31.522217,348131.868132,139005347.985348,68191135.531136,93.068169,1,2,1,1,2,50.000000
2025-11-11 10:37:45.304,,,,,,,,,,,,,,,,,,,,,,,,,,,,,,,,,,,,,,,,,,/muse/elements/blink
2025-11-11 10:37:45.526,1.42556990658315,0.2057666606336317,1.011349474430417,1.353078494074794,1.196093739546577,0.09564858864156034,0.1860101143117826,1.226248182309785,1.534460020051397,0.2258211037950288,0.2685624553870935,0.9728615637313573,1.406181641627857,1.387733613585643,0.9524407851865166,0.8700337408171425,0.8290784934109594,1.038672056203928,0.3175920354786424,0.9116302203482468,813.5164835164835,822.3809523809524,813.1135531135532,807.0695970695971,668.8644688644689,0.109375,-0.029053,0.944214,1.338348,1.241150,-14.617157,372307.692308,139125421.245421,68434505.494505,89.385765,1,2,1,1,2,50.000000
2025-11-11 10:37:46.156,,,,,,,,,,,,,,,,,,,,,,,,,,,,,,,,,,,,,,,,,,/muse/elements/blink
2025-11-11 10:37:46.526,1.42556990658315,0.2057666606336317,1.011349474430417,1.353078494074794,1.196093739546577,0.09564858864156034,0.1860101143117826,1.226248182309785,1.534460020051397,0.2258211037950288,0.2685624553870935,0.9728615637313573,1.406181641627857,1.387733613585643,0.9524407851865166,0.8700337408171425,0.8290784934109594,1.038672056203928,0.3175920354786424,0.9116302203482468,812.3076923076924,794.5787545787546,795.7875457875458,795.7875457875458,735.7509157509157,0.228821,0.055725,0.975952,-2.609406,-1.443024,-30.101624,326373.626374,139116556.776557,68437728.937729,84.648117,1,2,1,1,2,50.000000
2025-11-11 10:37:47.525,1.42556990658315,0.2057666606336317,1.001074747410876,1.353078494074794,1.196093739546577,0.09564858864156034,0.6885107335788191,1.226248182309785,1.534460020051397,0.2258211037950288,0.8376826373251697,0.9728615637313573,1.406181641627857,1.387733613585643,0.6271375469929559,0.8700337408171425,0.8290784934109594,1.038672056203928,0.3158813481052333,0.9116302203482468,662.014652014652,787.3260073260074,805.0549450549451,667.6556776556777,610.4395604395604,0.168274,-0.032043,1.056946,-9.360962,11.604004,-44.531860,327985.347985,139193919.413919,68761684.981685,83.021767,1,2,1,1,2,50.000000
2025-11-11 10:37:47.578,,,,,,,,,,,,,,,,,,,,,,,,,,,,,,,,,,,,,,,,,,/muse/elements/blink
2025-11-11 10:37:47.749,,,,,,,,,,,,,,,,,,,,,,,,,,,,,,,,,,,,,,,,,,/muse/elements/blink
2025-11-11 10:37:48.526,1.42556990658315,0.2057666606336317,1.087956811357301,1.353078494074794,1.196093739546577,0.09564858864156034,0.6518052139083075,1.226248182309785,1.534460020051397,0.2258211037950288,0.9248330062944923,0.9728615637313573,1.406181641627857,1.387733613585643,0.8145445839295313,0.8700337408171425,0.8290784934109594,1.038672056203928,0.5245632818746324,0.9116302203482468,781.6849816849817,738.974358974359,794.5787545787546,775.2380952380953,565.7142857142858,0.207397,-0.007935,1.054199,-7.327271,5.286102,-8.830109,320732.600733,139289010.989011,68955091.575092,83.021767,1,2,1,1,2,50.000000
2025-11-11 10:37:48.686,,,,,,,,,,,,,,,,,,,,,,,,,,,,,,,,,,,,,,,,,,/muse/elements/blink
2025-11-11 10:37:49.527,1.42556990658315,0.2057666606336317,1.097346955441251,1.353078494074794,1.196093739546577,0.09564858864156034,0.2927566874712079,1.226248182309785,1.534460020051397,0.2258211037950288,0.5232610030180275,0.9728615637313573,1.406181641627857,1.387733613585643,0.8808772351778601,0.8700337408171425,0.8290784934109594,1.038672056203928,0.5632769680029325,0.9116302203482468,840.1098901098901,538.3150183150183,778.0586080586081,803.4432234432235,760.7326007326008,0.226868,0.001831,0.982666,-15.447083,-8.874969,-23.193054,313479.853480,139337362.637363,68891428.571429,83.021767,1,2,1,1,2,50.000000
2025-11-11 10:37:49.922,,,,,,,,,,,,,,,,,,,,,,,,,,,,,,,,,,,,,,,,,,/muse/elements/blink
2025-11-11 10:37:50.532,1.42556990658315,0.2057666606336317,0.851176751312114,1.353078494074794,1.196093739546577,0.09564858864156034,0.1092326340296147,1.226248182309785,1.534460020051397,0.2258211037950288,0.367319415500917,0.9728615637313573,1.406181641627857,1.387733613585643,0.8921344971067859,0.8700337408171425,0.8290784934109594,1.038672056203928,0.6807717118201524,0.9116302203482468,837.6923076923077,834.0659340659341,806.6666666666667,802.6373626373627,627.3626373626374,0.265686,0.040771,1.015625,-8.598328,-14.819031,-23.993073,313479.853480,139362344.322344,69049377.289377,82.314964,1,2,1,1,2,50.000000
2025-11-11 10:37:51.526,0.9111686951117629,0.2057666606336317,1.06675134281932,0.9169824633124588,0.8867571045258641,0.09564858864156034,0.9070586006079797,0.9001005020158127,1.119602062385876,0.2258211037950288,0.4934102382461132,1.003342487855616,1.145103593308676,1.387733613585643,0.3839866331537835,0.8726233634179053,1.16046422707198,1.038672056203928,0.4915649796334707,0.8611479439806784,819.1575091575091,792.967032967033,796.996336996337,819.96336996337,714.7985347985348,0.296753,0.073608,0.987427,-8.815155,-15.783539,-37.877502,320732.600733,139254358.974359,69030842.490842,82.015495,1,1,1,1,1,50.000000
2025-11-11 10:37:52.270,,,,,,,,,,,,,,,,,,,,,,,,,,,,,,,,,,,,,,,,,,/muse/elements/blink
2025-11-11 10:37:52.526,0.9524736920616292,0.9236602535910154,1.06675134281932,1.160305241308514,0.8292942279540657,0.5000749975210166,0.9070586006079797,1.036212021520355,1.310011324832318,0.6022252108744892,0.4934102382461132,1.200202389855152,1.216229423671277,1.113400284209089,0.3839866331537835,1.004930270483226,1.042494257160955,0.9965738208246355,0.4915649796334707,0.8228402042014827,764.7619047619048,712.3809523809524,880.8058608058608,788.9377289377289,982.7472527472528,0.277405,0.022400,0.951843,-4.351501,0.560760,-7.379608,335238.095238,139283369.963370,68949450.549451,82.015495,1,1,1,1,1,50.000000
2025-11-11 10:37:52.636,,,,,,,,,,,,,,,,,,,,,,,,,,,,,,,,,,,,,,,,,,/muse/elements/blink
2025-11-11 10:37:53.235,,,,,,,,,,,,,,,,,,,,,,,,,,,,,,,,,,,,,,,,,,/muse/elements/blink
2025-11-11 10:37:53.470,,,,,,,,,,,,,,,,,,,,,,,,,,,,,,,,,,,,,,,,,,/muse/elements/blink
2025-11-11 10:37:53.525,1.112705416434565,0.9348430286943394,1.06675134281932,1.386391709536189,0.8349473303071253,0.5375458851085927,0.9070586006079797,1.108375141587083,1.244538123983607,0.5882540386785614,0.4934102382461132,1.146461790406055,1.258160444156184,1.167789975575877,0.3839866331537835,1.073953818448169,0.9424848862158846,1.033606241920332,0.4915649796334707,0.6986382109940339,811.5018315018315,798.6080586080586,817.5457875457876,816.7399267399268,638.2417582417582,0.246887,0.088135,0.975769,5.039368,7.282410,19.723816,365054.945055,139275311.355311,68792307.692308,82.015495,1,1,1,1,1,50.000000
2025-11-11 10:37:53.940,,,,,,,,,,,,,,,,,,,,,,,,,,,,,,,,,,,,,,,,,,/muse/elements/blink
2025-11-11 10:37:54.173,,,,,,,,,,,,,,,,,,,,,,,,,,,,,,,,,,,,,,,,,,/muse/elements/blink
2025-11-11 10:37:54.526,1.112705416434565,0.9348430286943394,1.06675134281932,1.386391709536189,0.8349473303071253,0.5375458851085927,0.9070586006079797,1.108375141587083,1.244538123983607,0.5882540386785614,0.4934102382461132,1.146461790406055,1.258160444156184,1.167789975575877,0.3839866331537835,1.073953818448169,0.9424848862158846,1.033606241920332,0.4915649796334707,0.6986382109940339,800.2197802197802,744.2124542124542,807.0695970695971,819.5604395604396,850.5860805860806,0.340210,0.012085,0.995056,15.746155,-1.801910,26.198730,427912.087912,139150402.930403,68570695.970696,82.015495,1,1,1,1,1,50.000000
2025-11-11 10:37:54.873,,,,,,,,,,,,,,,,,,,,,,,,,,,,,,,,,,,,,,,,,,/muse/elements/blink
2025-11-11 10:37:55.296,,,,,,,,,,,,,,,,,,,,,,,,,,,,,,,,,,,,,,,,,,/muse/elements/blink
2025-11-11 10:37:55.526,1.112705416434565,0.9348430286943394,1.06675134281932,1.386391709536189,0.8349473303071253,0.5375458851085927,0.9070586006079797,1.108375141587083,1.244538123983607,0.5882540386785614,0.4934102382461132,1.146461790406055,1.258160444156184,1.167789975575877,0.3839866331537835,1.073953818448169,0.9424848862158846,1.033606241920332,0.4915649796334707,0.6986382109940339,809.0842490842491,805.0549450549451,802.6373626373627,801.4285714285714,886.8498168498169,0.290649,-0.023560,0.969727,4.912262,-0.000000,24.351959,599560.439560,139066593.406593,68402271.062271,82.015495,1,2,1,1,2,50.000000
2025-11-11 10:37:55.893,,,,,,,,,,,,,,,,,,,,,,,,,,,,,,,,,,,,,,,,,,/muse/elements/blink
2025-11-11 10:37:56.526,1.112705416434565,0.9348430286943394,1.06675134281932,1.386391709536189,0.8349473303071253,0.5375458851085927,0.9070586006079797,1.108375141587083,1.244538123983607,0.5882540386785614,0.4934102382461132,1.146461790406055,1.258160444156184,1.167789975575877,0.3839866331537835,1.073953818448169,0.9424848862158846,1.033606241920332,0.4915649796334707,0.6986382109940339,785.3113553113553,664.4322344322344,777.6556776556777,799.4139194139194,582.2344322344322,0.332947,0.056763,0.980591,7.080536,-13.929291,23.080902,332820.512821,139100439.560440,68482051.282051,80.876419,1,2,1,1,2,50.000000
2025-11-11 10:37:57.526,1.112705416434565,0.9348430286943394,1.06675134281932,1.386391709536189,0.8349473303071253,0.5375458851085927,0.9070586006079797,1.108375141587083,1.244538123983607,0.5882540386785614,0.4934102382461132,1.146461790406055,1.258160444156184,1.167789975575877,0.3839866331537835,1.073953818448169,0.9424848862158846,1.033606241920332,0.4915649796334707,0.6986382109940339,784.1025641025641,170.03663003663,794.5787545787546,771.2087912087912,601.978021978022,0.367798,-0.111877,0.890259,2.175751,-5.674896,17.577972,316703.296703,138882051.282051,68723003.663004,92.477043,1,2,1,1,2,50.000000
2025-11-11 10:37:58.107,,,,,,,,,,,,,,,,,,,,,,,,,,,,,,,,,,,,,,,,,,/muse/elements/blink
2025-11-11 10:37:58.525,1.112705416434565,0.9348430286943394,1.06675134281932,1.386391709536189,0.8349473303071253,0.5375458851085927,0.9070586006079797,1.108375141587083,1.244538123983607,0.5882540386785614,0.4934102382461132,1.146461790406055,1.258160444156184,1.167789975575877,0.3839866331537835,1.073953818448169,0.9424848862158846,1.033606241920332,0.4915649796334707,0.6986382109940339,841.3186813186813,352.1611721611721,810.6959706959707,846.5567765567765,932.3809523809524,0.337646,0.034790,0.923828,12.531128,10.796509,45.586090,316703.296703,139142344.322344,68861611.721612,101.140205,1,2,1,1,2,50.000000
2025-11-11 10:37:58.576,,,,,,,,,,,,,,,,,,,,,,,,,,,,,,,,,,,,,,,,,,/muse/elements/blink
2025-11-11 10:37:59.526,1.112705416434565,0.9348430286943394,1.06675134281932,1.386391709536189,0.8349473303071253,0.5375458851085927,0.9070586006079797,1.108375141587083,1.244538123983607,0.5882540386785614,0.4934102382461132,1.146461790406055,1.258160444156184,1.167789975575877,0.3839866331537835,1.073953818448169,0.9424848862158846,1.033606241920332,0.4915649796334707,0.6986382109940339,816.7399267399268,774.0293040293041,805.0549450549451,820.7692307692308,637.4358974358975,0.206421,0.048218,1.045410,10.706787,6.198273,25.712738,324761.904762,139270476.190476,69000219.780220,97.696472,1,2,1,1,2,50.000000
2025-11-11 10:37:59.854,,,,,,,,,,,,,,,,,,,,,,,,,,,,,,,,,,,,,,,,,,/muse/elements/blink
2025-11-11 10:38:00.526,1.112705416434565,0.9348430286943394,1.06675134281932,1.386391709536189,0.8349473303071253,0.5375458851085927,0.9070586006079797,1.108375141587083,1.244538123983607,0.5882540386785614,0.4934102382461132,1.146461790406055,1.258160444156184,1.167789975575877,0.3839866331537835,1.073953818448169,0.9424848862158846,1.033606241920332,0.4915649796334707,0.6986382109940339,817.5457875457876,809.4871794871796,808.6813186813187,811.9047619047619,850.5860805860806,0.168518,0.065491,1.055115,11.237640,2.960815,30.856781,329597.069597,139316410.256410,68930915.750916,97.696472,1,2,1,1,2,50.000000
2025-11-11 10:38:01.528,1.112705416434565,0.9348430286943394,0.8270734634192888,1.386391709536189,0.8349473303071253,0.5375458851085927,0.7896744439483132,1.108375141587083,1.244538123983607,0.5882540386785614,0.7336875479218826,1.146461790406055,1.258160444156184,1.167789975575877,0.715947283742324,1.073953818448169,0.9424848862158846,1.033606241920332,0.5437266950858309,0.6986382109940339,811.9047619047619,599.1575091575091,806.2637362637363,807.8754578754579,885.2380952380953,0.310791,-0.030701,0.871765,-7.245026,1.256104,4.022522,334432.234432,139305128.205128,68899487.179487,97.696472,1,2,1,1,2,50.000000
2025-11-11 10:38:01.857,,,,,,,,,,,,,,,,,,,,,,,,,,,,,,,,,,,,,,,,,,/muse/elements/blink
2025-11-11 10:38:02.283,,,,,,,,,,,,,,,,,,,,,,,,,,,,,,,,,,,,,,,,,,/muse/elements/blink
2025-11-11 10:38:02.526,1.827457486792833,0.9348430286943394,0.6594909758239355,1.586591886970935,1.554038102040434,0.5375458851085927,0.526441868942683,1.459206779757427,1.574671256897586,0.5882540386785614,0.6262099163652317,1.434917800902589,0.9457428126458953,1.167789975575877,0.753229571509674,0.9423076659763114,0.4068584939131,1.033606241920332,0.531921117402654,0.4409571053104948,706.3369963369963,860.6593406593407,770.4029304029305,691.025641025641,553.2234432234433,0.212830,0.013123,0.916809,4.545898,3.626251,6.699219,336849.816850,139505787.545788,68856776.556777,127.830475,1,1,1,1,1,50.000000
2025-11-11 10:38:02.706,,,,,,,,,,,,,,,,,,,,,,,,,,,,,,,,,,,,,,,,,,/muse/elements/blink
2025-11-11 10:38:03.528,1.986491701741689,0.9348430286943394,0.5534918061785733,1.758450676214496,1.718466603971503,0.5375458851085927,0.099963511606636,1.577276333386938,1.563808825587063,0.5882540386785614,0.3693653680504869,1.433391844674342,1.072346590932166,1.167789975575877,0.7264467913034268,1.007208340572357,0.450511188648735,1.033606241920332,0.5739661276216839,0.3751312756595334,789.7435897435897,805.8608058608058,801.025641025641,809.4871794871796,758.3150183150184,0.293945,0.078308,0.953674,-3.140259,-2.512207,-23.604279,341684.981685,139546886.446886,68875311.355311,130.337219,1,1,1,1,1,50.000000
2025-11-11 10:38:04.007,,,,,,,,,,,,,,,,,,,,,,,,,,,,,,,,,,,,,,,,,,/muse/elements/blink
2025-11-11 10:38:04.529,1.986491701741689,0.9348430286943394,0.8583684919518019,1.758450676214496,1.718466603971503,0.5375458851085927,0.2658911731092766,1.577276333386938,1.563808825587063,0.5882540386785614,0.3921500866644375,1.433391844674342,1.072346590932166,1.167789975575877,0.6323626370601981,1.007208340572357,0.450511188648735,1.033606241920332,0.4793770305093575,0.3751312756595334,794.1758241758242,823.5897435897436,818.7545787545788,808.2783882783883,723.2600732600732,0.303406,-0.015381,0.946777,-2.893524,-5.794525,-15.746155,320732.600733,139624249.084249,69218608.058608,130.337219,1,1,1,1,1,50.000000
2025-11-11 10:38:05.522,,,,,,,,,,,,,,,,,,,,,,,,,,,,,,,,,,,,,,,,,,/muse/elements/blink
2025-11-11 10:38:05.531,1.986491701741689,0.9348430286943394,0.6973536211360888,1.758450676214496,1.718466603971503,0.5375458851085927,0.5287843036893662,1.577276333386938,1.563808825587063,0.5882540386785614,0.463508478219806,1.433391844674342,1.072346590932166,1.167789975575877,0.6875172563641294,1.007208340572357,0.450511188648735,1.033606241920332,0.1692802671918763,0.3751312756595334,812.3076923076924,832.8571428571429,803.8461538461539,818.3516483516484,628.5714285714286,0.279236,0.036987,0.932312,-14.475098,-10.736694,-25.907135,327985.347985,139838608.058608,69299194.139194,130.337219,1,2,1,1,2,50.000000
2025-11-11 10:38:06.270,,,,,,,,,,,,,,,,,,,,,,,,,,,,,,,,,,,,,,,,,,/muse/elements/blink
2025-11-11 10:38:06.525,1.986491701741689,0.9348430286943394,0.9943649569228856,1.758450676214496,1.718466603971503,0.5375458851085927,0.708200664396003,1.577276333386938,1.563808825587063,0.5882540386785614,0.6859150468115151,1.433391844674342,1.072346590932166,1.167789975575877,0.6217578130403284,1.007208340572357,0.450511188648735,1.033606241920332,0.1828284366688924,0.3751312756595334,694.6520146520147,517.7655677655678,766.3736263736264,671.2820512820513,656.7765567765568,0.342163,-0.059753,0.918152,-15.805969,2.243042,-35.342865,327985.347985,139841831.501832,69633626.373626,110.837662,1,2,4,1,2,50.000000
2025-11-11 10:38:06.632,,,,,,,,,,,,,,,,,,,,,,,,,,,,,,,,,,,,,,,,,,/muse/elements/blink
2025-11-11 10:38:07.526,1.986491701741689,0.9348430286943394,1.139158165723847,1.758450676214496,1.718466603971503,0.5375458851085927,0.8194663392536156,1.577276333386938,1.563808825587063,0.5882540386785614,0.5543929718899814,1.433391844674342,1.072346590932166,1.167789975575877,0.4258274473690637,1.007208340572357,0.450511188648735,1.033606241920332,0.1880203853416841,0.3751312756595334,817.948717948718,482.3076923076923,801.4285714285714,801.4285714285714,780.0732600732601,0.276062,0.056641,0.951660,-6.833801,-2.504730,-15.828400,315091.575092,140009450.549451,69614285.714286,104.339752,1,2,4,1,2,50.000000
2025-11-11 10:38:08.293,,,,,,,,,,,,,,,,,,,,,,,,,,,,,,,,,,,,,,,,,,/muse/elements/blink
2025-11-11 10:38:08.526,1.986491701741689,0.9348430286943394,0.6735231105047226,1.758450676214496,1.718466603971503,0.5375458851085927,0.4081459905548727,1.577276333386938,1.563808825587063,0.5882540386785614,0.6695617316627294,1.433391844674342,1.072346590932166,1.167789975575877,0.566201838671623,1.007208340572357,0.450511188648735,1.033606241920332,0.2648774375393387,0.3751312756595334,752.2710622710623,902.1611721611722,772.4175824175825,755.4945054945055,568.9377289377289,0.250061,-0.055481,0.990417,-14.961090,0.418701,-38.213959,311868.131868,139906300.366300,69615897.435897,121.944794,1,2,2,1,2,50.000000
2025-11-11 10:38:08.804,,,,,,,,,,,,,,,,,,,,,,,,,,,,,,,,,,,,,,,,,,/muse/elements/blink
2025-11-11 10:38:09.526,1.986491701741689,0.9348430286943394,0.7127782676741005,1.758450676214496,1.718466603971503,0.5375458851085927,0.4169674712719529,1.577276333386938,1.563808825587063,0.5882540386785614,0.6681917443385703,1.433391844674342,1.072346590932166,1.167789975575877,0.6735527867982658,1.007208340572357,0.450511188648735,1.033606241920332,0.2462682666276157,0.3751312756595334,821.978021978022,459.7435897435898,802.6373626373627,809.8901098901099,831.2454212454213,0.292603,0.054504,0.969666,-8.194580,9.622650,-22.138824,315091.575092,139778974.358974,69579633.699634,111.976303,1,2,2,1,2,50.000000
2025-11-11 10:38:09.789,,,,,,,,,,,,,,,,,,,,,,,,,,,,,,,,,,,,,,,,,,/muse/elements/blink
2025-11-11 10:38:10.526,1.986491701741689,0.9348430286943394,1.074700790094245,1.758450676214496,1.718466603971503,0.5375458851085927,0.8546631956246226,1.577276333386938,1.563808825587063,0.5882540386785614,0.7280363541930702,1.433391844674342,1.072346590932166,1.167789975575877,0.3010563173756619,1.007208340572357,0.450511188648735,1.033606241920332,0.3513073502185151,0.3751312756595334,784.5054945054945,740.1831501831502,819.5604395604396,861.4652014652015,886.0439560439561,0.339661,0.002869,0.983215,-6.235657,-5.420685,-23.970642,323956.043956,139920000.000000,69503076.923077,95.500687,1,2,2,1,2,50.000000
2025-11-11 10:38:10.532,,,,,,,,,,,,,,,,,,,,,,,,,,,,,,,,,,,,,,,,,,/muse/elements/blink
2025-11-11 10:38:11.319,,,,,,,,,,,,,,,,,,,,,,,,,,,,,,,,,,,,,,,,,,/muse/elements/blink
2025-11-11 10:38:11.526,1.986491701741689,0.9348430286943394,0.5968170926683948,1.758450676214496,1.718466603971503,0.5375458851085927,0.4643983976576206,1.577276333386938,1.563808825587063,0.5882540386785614,0.5972155665245883,1.433391844674342,1.072346590932166,1.167789975575877,0.7244794385183749,1.007208340572357,0.450511188648735,1.033606241920332,0.3232376917695863,0.3751312756595334,777.6556776556777,913.8461538461539,819.1575091575091,799.8168498168499,678.9377289377289,0.425415,-0.002136,0.842712,1.383209,2.100983,-6.811371,336849.816850,139805567.765568,69410402.930403,93.375999,1,2,2,1,2,50.000000
2025-11-11 10:38:11.937,,,,,,,,,,,,,,,,,,,,,,,,,,,,,,,,,,,,,,,,,,/muse/elements/blink
2025-11-11 10:38:12.526,1.986491701741689,0.9348430286943394,0.6232405827866943,1.758450676214496,1.718466603971503,0.5375458851085927,0.4051183814786591,1.577276333386938,1.563808825587063,0.5882540386785614,0.5385851173605939,1.433391844674342,1.072346590932166,1.167789975575877,0.7120834849238633,1.007208340572357,0.450511188648735,1.033606241920332,0.2206520758776,0.3751312756595334,789.3406593406594,668.8644688644689,821.1721611721612,802.6373626373627,834.0659340659341,0.339539,0.015137,0.878296,0.680389,1.076660,4.957123,361025.641026,139773333.333333,69308864.468864,93.375999,1,2,2,1,2,50.000000
2025-11-11 10:38:12.811,,,,,,,,,,,,,,,,,,,,,,,,,,,,,,,,,,,,,,,,,,/muse/elements/blink
2025-11-11 10:38:13.526,1.986491701741689,0.9348430286943394,0.5738890033494554,1.758450676214496,1.718466603971503,0.5375458851085927,0.2804593974118501,1.577276333386938,1.563808825587063,0.5882540386785614,0.2730053622036083,1.433391844674342,1.072346590932166,1.167789975575877,0.6290786077807704,1.007208340572357,0.450511188648735,1.033606241920332,0.1977885513423789,0.3751312756595334,751.0622710622711,498.4249084249084,870.7326007326008,791.7582417582418,1011.758241758242,0.243774,-0.012024,0.985718,0.515900,-11.873169,24.194946,394871.794872,139658095.238095,69313699.633700,93.375999,1,2,2,1,2,50.000000
2025-11-11 10:38:13.793,,,,,,,,,,,,,,,,,,,,,,,,,,,,,,,,,,,,,,,,,,/muse/elements/blink
2025-11-11 10:38:14.050,,,,,,,,,,,,,,,,,,,,,,,,,,,,,,,,,,,,,,,,,,/muse/elements/blink
2025-11-11 10:38:14.371,,,,,,,,,,,,,,,,,,,,,,,,,,,,,,,,,,,,,,,,,,/muse/elements/blink
2025-11-11 10:38:14.531,1.986491701741689,0.9348430286943394,0.5738890033494554,1.758450676214496,1.718466603971503,0.5375458851085927,0.2804593974118501,1.577276333386938,1.563808825587063,0.5882540386785614,0.2730053622036083,1.433391844674342,1.072346590932166,1.167789975575877,0.6290786077807704,1.007208340572357,0.450511188648735,1.033606241920332,0.1977885513423789,0.3751312756595334,819.1575091575091,1254.322344322344,790.1465201465202,829.2307692307693,603.992673992674,0.186096,0.087036,1.019714,3.588867,-2.886047,4.523468,539926.739927,139701611.721612,69378168.498168,93.375999,1,2,2,1,2,50.000000
2025-11-11 10:38:15.178,,,,,,,,,,,,,,,,,,,,,,,,,,,,,,,,,,,,,,,,,,/muse/elements/blink
2025-11-11 10:38:15.525,1.986491701741689,0.9348430286943394,0.5738890033494554,1.758450676214496,1.718466603971503,0.5375458851085927,0.2804593974118501,1.577276333386938,1.563808825587063,0.5882540386785614,0.2730053622036083,1.433391844674342,1.072346590932166,1.167789975575877,0.6290786077807704,1.007208340572357,0.450511188648735,1.033606241920332,0.1977885513423789,0.3751312756595334,798.6080586080586,848.1684981684982,799.0109890109891,803.4432234432235,919.4871794871796,0.135010,0.003662,0.972778,-0.142059,-11.656342,45.077667,733333.333333,139666153.846154,69306446.886447,88.259995,1,2,2,1,2,50.000000
2025-11-11 10:38:16.477,,,,,,,,,,,,,,,,,,,,,,,,,,,,,,,,,,,,,,,,,,/muse/elements/blink
2025-11-11 10:38:16.530,1.986491701741689,0.9348430286943394,0.5738890033494554,1.758450676214496,1.718466603971503,0.5375458851085927,0.2804593974118501,1.577276333386938,1.563808825587063,0.5882540386785614,0.2730053622036083,1.433391844674342,1.072346590932166,1.167789975575877,0.6290786077807704,1.007208340572357,0.450511188648735,1.033606241920332,0.1977885513423789,0.3751312756595334,808.6813186813187,762.3443223443223,787.7289377289378,799.0109890109891,737.7655677655678,0.223450,0.091309,0.929260,12.209625,-3.080444,36.329803,314285.714286,139658901.098901,69050183.150183,88.264587,1,2,2,1,2,50.000000
2025-11-11 10:38:17.010,,,,,,,,,,,,,,,,,,,,,,,,,,,,,,,,,,,,,,,,,,/muse/elements/blink
2025-11-11 10:38:17.529,1.986491701741689,0.9348430286943394,0.5738890033494554,1.758450676214496,1.718466603971503,0.5375458851085927,0.2804593974118501,1.577276333386938,1.563808825587063,0.5882540386785614,0.2730053622036083,1.433391844674342,1.072346590932166,1.167789975575877,0.6290786077807704,1.007208340572357,0.450511188648735,1.033606241920332,0.1977885513423789,0.3751312756595334,790.1465201465202,891.6849816849817,794.981684981685,794.1758241758242,527.8388278388279,0.226746,-0.065857,0.950745,7.955322,7.274933,32.673645,316703.296703,139755604.395604,69221831.501832,88.264587,1,2,1,1,2,50.000000
2025-11-11 10:38:17.858,,,,,,,,,,,,,,,,,,,,,,,,,,,,,,,,,,,,,,,,,,/muse/elements/blink
2025-11-11 10:38:18.030,,,,,,,,,,,,,,,,,,,,,,,,,,,,,,,,,,,,,,,,,,/muse/elements/blink
2025-11-11 10:38:18.526,1.986491701741689,0.9348430286943394,0.5738890033494554,1.758450676214496,1.718466603971503,0.5375458851085927,0.2804593974118501,1.577276333386938,1.563808825587063,0.5882540386785614,0.2730053622036083,1.433391844674342,1.072346590932166,1.167789975575877,0.6290786077807704,1.007208340572357,0.450511188648735,1.033606241920332,0.1977885513423789,0.3751312756595334,808.2783882783883,1622.197802197802,720.8424908424909,844.5421245421246,656.3736263736264,-0.162048,0.125427,0.948792,-5.398254,15.663910,21.989288,319120.879121,139450989.010989,68930109.890110,88.264587,1,2,2,1,2,50.000000
2025-11-11 10:38:18.541,,,,,,,,,,,,,,,,,,,,,,,,,,,,,,,,,,,,,,,,,,/muse/elements/blink
2025-11-11 10:38:19.354,,,,,,,,,,,,,,,,,,,,,,,,,,,,,,,,,,,,,,,,,,/muse/elements/blink
2025-11-11 10:38:19.530,1.986491701741689,0.9348430286943394,0.5738890033494554,1.758450676214496,1.718466603971503,0.5375458851085927,0.2804593974118501,1.577276333386938,1.563808825587063,0.5882540386785614,0.2730053622036083,1.433391844674342,1.072346590932166,1.167789975575877,0.6290786077807704,1.007208340572357,0.450511188648735,1.033606241920332,0.1977885513423789,0.3751312756595334,800.2197802197802,171.6483516483516,791.3553113553114,808.6813186813187,751.8681318681319,0.128174,0.083374,1.025085,-0.463562,-17.944336,36.539154,341684.981685,139058534.798535,68255604.395604,86.625130,1,2,1,1,2,50.000000
2025-11-11 10:38:20.527,1.986491701741689,0.9348430286943394,0.5738890033494554,1.758450676214496,1.718466603971503,0.5375458851085927,0.2804593974118501,1.577276333386938,1.563808825587063,0.5882540386785614,0.2730053622036083,1.433391844674342,1.072346590932166,1.167789975575877,0.6290786077807704,1.007208340572357,0.450511188648735,1.033606241920332,0.1977885513423789,0.3751312756595334,692.6373626373627,836.4835164835165,713.5897435897436,653.5531135531136,553.2234432234433,0.102661,0.083191,1.102478,7.402039,25.750122,-12.306824,336043.956044,139396996.336996,68391794.871795,102.392036,1,2,1,1,2,50.000000
2025-11-11 10:38:20.647,,,,,,,,,,,,,,,,,,,,,,,,,,,,,,,,,,,,,,,,,,/muse/elements/blink
2025-11-11 10:38:21.283,,,,,,,,,,,,,,,,,,,,,,,,,,,,,,,,,,,,,,,,,,/muse/elements/blink
2025-11-11 10:38:21.528,1.986491701741689,0.9348430286943394,0.5738890033494554,1.758450676214496,1.718466603971503,0.5375458851085927,0.2804593974118501,1.577276333386938,1.563808825587063,0.5882540386785614,0.2730053622036083,1.433391844674342,1.072346590932166,1.167789975575877,0.6290786077807704,1.007208340572357,0.450511188648735,1.033606241920332,0.1977885513423789,0.3751312756595334,792.967032967033,763.956043956044,817.1428571428571,823.992673992674,842.5274725274726,0.202393,0.073242,0.931335,-4.344025,-9.525452,13.704987,333626.373626,139517069.597070,68503809.523810,102.692253,1,2,1,1,2,50.000000
2025-11-11 10:38:21.969,,,,,,,,,,,,,,,,,,,,,,,,,,,,,,,,,,,,,,,,,,/muse/elements/blink
2025-11-11 10:38:22.532,1.986491701741689,0.9348430286943394,0.5738890033494554,1.758450676214496,1.718466603971503,0.5375458851085927,0.2804593974118501,1.577276333386938,1.563808825587063,0.5882540386785614,0.2730053622036083,1.433391844674342,1.072346590932166,1.167789975575877,0.6290786077807704,1.007208340572357,0.450511188648735,1.033606241920332,0.1977885513423789,0.3751312756595334,773.6263736263736,203.8827838827839,801.025641025641,759.1208791208792,851.7948717948718,0.363647,-0.096924,0.931274,-1.607513,-3.484192,-0.732727,344102.564103,139531575.091575,68531208.791209,102.692253,1,2,1,1,2,50.000000
2025-11-11 10:38:23.183,,,,,,,,,,,,,,,,,,,,,,,,,,,,,,,,,,,,,,,,,,/muse/elements/blink
2025-11-11 10:38:23.524,,,,,,,,,,,,,,,,,,,,,,,,,,,,,,,,,,,,,,,,,,/muse/elements/blink
2025-11-11 10:38:23.537,1.986491701741689,0.9348430286943394,0.8549878491304307,1.758450676214496,1.718466603971503,0.5375458851085927,0.4572700257602739,1.577276333386938,1.563808825587063,0.5882540386785614,0.5959908778040268,1.433391844674342,1.072346590932166,1.167789975575877,0.8553617533337811,1.007208340572357,0.450511188648735,1.033606241920332,0.6594786620672508,0.3751312756595334,853.0036630036631,736.959706959707,811.5018315018315,838.0952380952381,537.5091575091575,0.262085,0.045898,0.978577,-8.463745,-3.252411,-23.551941,314285.714286,139398608.058608,68407912.087912,119.184784,1,2,1,1,2,50.000000
2025-11-11 10:38:23.802,,,,,,,,,,,,,,,,,,,,,,,,,,,,,,,,,,,,,,,,,,/muse/elements/blink
2025-11-11 10:38:24.015,,,,,,,,,,,,,,,,,,,,,,,,,,,,,,,,,,,,,,,,,,/muse/elements/blink
2025-11-11 10:38:24.398,,,,,,,,,,,,,,,,,,,,,,,,,,,,,,,,,,,,,,,,,,/muse/elements/blink
2025-11-11 10:38:24.525,1.986491701741689,0.9348430286943394,0.8549878491304307,1.758450676214496,1.718466603971503,0.5375458851085927,0.4572700257602739,1.577276333386938,1.563808825587063,0.5882540386785614,0.5959908778040268,1.433391844674342,1.072346590932166,1.167789975575877,0.8553617533337811,1.007208340572357,0.450511188648735,1.033606241920332,0.6594786620672508,0.3751312756595334,821.5750915750916,585.4578754578755,798.2051282051282,826.4102564102565,860.6593406593407,0.272278,-0.007751,0.946289,-3.723450,-6.953430,-30.019379,318315.018315,139489670.329670,68175824.175824,119.184784,1,2,1,1,2,50.000000
2025-11-11 10:38:25.534,1.986491701741689,0.9348430286943394,0.9317303493962725,1.758450676214496,1.718466603971503,0.5375458851085927,0.4824090235762653,1.577276333386938,1.563808825587063,0.5882540386785614,0.5959908778040268,1.433391844674342,1.072346590932166,1.167789975575877,0.8662340549222682,1.007208340572357,0.450511188648735,1.033606241920332,0.6098652305751094,0.3751312756595334,783.2967032967033,775.6410256410256,797.8021978021978,814.3223443223443,711.5750915750916,0.293579,0.083130,0.932434,-17.697601,-6.489868,-35.058746,327179.487179,139591208.791209,68474798.534799,119.184784,1,2,1,1,2,50.000000
2025-11-11 10:38:25.845,,,,,,,,,,,,,,,,,,,,,,,,,,,,,,,,,,,,,,,,,,/muse/elements/blink
2025-11-11 10:38:26.461,,,,,,,,,,,,,,,,,,,,,,,,,,,,,,,,,,,,,,,,,,/muse/elements/blink
2025-11-11 10:38:26.535,1.986491701741689,0.9348430286943394,0.9317303493962725,1.758450676214496,1.718466603971503,0.5375458851085927,0.4824090235762653,1.577276333386938,1.563808825587063,0.5882540386785614,0.5959908778040268,1.433391844674342,1.072346590932166,1.167789975575877,0.8662340549222682,1.007208340572357,0.450511188648735,1.033606241920332,0.6098652305751094,0.3751312756595334,701.5018315018315,895.7142857142858,779.6703296703297,709.9633699633699,539.1208791208792,0.156250,-0.041504,0.968262,-12.673187,19.768677,-42.557983,323956.043956,139593626.373626,68739120.879121,119.184784,1,2,1,1,2,50.000000
2025-11-11 10:38:27.526,1.986491701741689,0.9348430286943394,0.9317303493962725,1.758450676214496,1.718466603971503,0.5375458851085927,0.4824090235762653,1.577276333386938,1.563808825587063,0.5882540386785614,0.5959908778040268,1.433391844674342,1.072346590932166,1.167789975575877,0.8662340549222682,1.007208340572357,0.450511188648735,1.033606241920332,0.6098652305751094,0.3751312756595334,774.4322344322345,842.5274725274726,813.919413919414,780.4761904761905,660,0.059387,-0.001953,1.041138,-6.624451,4.852448,-12.329254,311868.131868,139654065.934066,69001831.501832,119.184784,1,2,1,1,2,50.000000
2025-11-11 10:38:28.532,0.6688263773627606,0.9348430286943394,0.1236667881589068,0.4614275151732666,0.09800680036545546,0.5375458851085927,-0.293253694050894,0.2884907863463096,0.6253214689895713,0.5882540386785614,-0.01223641641549434,0.2296193977251804,0.8826897647675613,1.167789975575877,0.7172085945097433,0.7323168093696548,0.7357307721903946,1.033606241920332,0.5472178236690717,0.6678105871440615,807.4725274725275,790.952380952381,809.4871794871796,805.0549450549451,689.4139194139194,0.115540,0.018372,0.958252,-7.005768,-0.919647,-20.351868,310256.410256,139669377.289377,68967179.487179,119.184784,1,1,1,1,1,50.000000
2025-11-11 10:38:28.907,,,,,,,,,,,,,,,,,,,,,,,,,,,,,,,,,,,,,,,,,,/muse/elements/blink
2025-11-11 10:38:29.526,0.665734230927521,0.9348430286943394,0.04792726951363137,0.6095606823713403,-0.03901451223485823,0.5375458851085927,-0.4248148515733259,0.3106337747348929,0.492146275523424,0.5882540386785614,0.06392563883867441,0.07635350512688287,0.8103163541334418,1.167789975575877,0.7744161790103428,0.8137410303523476,0.6603945255742557,1.033606241920332,0.5675213004638392,0.5663597657427196,793.3699633699634,782.893772893773,806.6666666666667,801.4285714285714,577.8021978021978,0.281738,-0.086670,0.970520,-15.267639,-13.129272,-34.340973,315897.435897,139525128.205128,69011501.831502,119.184784,1,1,1,1,1,50.000000
2025-11-11 10:38:30.315,,,,,,,,,,,,,,,,,,,,,,,,,,,,,,,,,,,,,,,,,,/muse/elements/blink
2025-11-11 10:38:30.526,0.6040333284675511,0.9348430286943394,0.5483900059317123,1.29947372242877,-0.05641014107753273,0.5375458851085927,0.5039178968135594,1.246480198914898,0.4435125331619399,0.5882540386785614,0.3423050282450805,1.269067272255003,0.8279468342830567,1.167789975575877,0.7421123902308909,1.01140942433976,0.603979142986506,1.033606241920332,0.5393377310126389,0.6369759717774744,782.0879120879121,816.7399267399268,807.4725274725275,797.3992673992674,702.7106227106227,0.249451,0.048401,0.946289,-9.233856,1.786957,-29.630585,327985.347985,139329304.029304,68889816.849817,119.184784,1,1,1,1,1,50.000000
2025-11-11 10:38:31.018,,,,,,,,,,,,,,,,,,,,,,,,,,,,,,,,,,,,,,,,,,/muse/elements/blink
2025-11-11 10:38:31.445,,,,,,,,,,,,,,,,,,,,,,,,,,,,,,,,,,,,,,,,,,/muse/elements/blink
2025-11-11 10:38:31.526,1.474469231592845,0.9348430286943394,0.3315516528772537,1.397304297031692,1.479190173511459,0.5375458851085927,0.2772260928310261,1.340774174520372,1.441602003539147,0.5882540386785614,0.4465277916482926,1.296506977188268,1.454936602825665,1.167789975575877,0.6919246088204042,1.015274569791781,1.068792415033722,1.033606241920332,0.4879179844934456,0.6705823649920742,821.978021978022,872.7472527472528,779.2673992673992,811.5018315018315,827.2161172161173,0.056152,-0.006531,0.982971,3.686066,14.123688,-5.944061,341684.981685,139394578.754579,69028424.908425,108.984993,1,1,1,1,1,50.000000
2025-11-11 10:38:32.526,1.474469231592845,0.9348430286943394,0.2068104842673337,1.545773236999788,1.479190173511459,0.5375458851085927,-0.02080794098082878,1.472878541007698,1.441602003539147,0.5882540386785614,0.1809158908858526,1.291098824428792,1.454936602825665,1.167789975575877,0.661494607711721,1.032912606173596,1.068792415033722,1.033606241920332,0.3977517846533769,0.6854311134146286,804.6520146520147,922.3076923076924,783.2967032967033,803.8461538461539,591.5018315018315,0.021606,0.172607,0.970520,4.710388,10.250702,27.940826,393260.073260,139325274.725275,69020366.300366,103.508331,1,1,1,1,1,50.000000
2025-11-11 10:38:32.658,,,,,,,,,,,,,,,,,,,,,,,,,,,,,,,,,,,,,,,,,,/muse/elements/blink
2025-11-11 10:38:33.526,1.474469231592845,0.9348430286943394,0.2850158640497379,1.545773236999788,1.479190173511459,0.5375458851085927,0.001131088618092679,1.472878541007698,1.441602003539147,0.5882540386785614,0.1803283385988215,1.291098824428792,1.454936602825665,1.167789975575877,0.6745069694756296,1.032912606173596,1.068792415033722,1.033606241920332,0.4289924657689953,0.6854311134146286,804.2490842490843,847.3626373626374,807.4725274725275,810.2930402930403,752.2710622710623,-0.002991,0.030212,1.239136,1.502838,11.723633,0.500946,499633.699634,139232600.732601,68952673.992674,90.204643,1,2,1,1,2,50.000000
2025-11-11 10:38:34.489,,,,,,,,,,,,,,,,,,,,,,,,,,,,,,,,,,,,,,,,,,/muse/elements/blink
2025-11-11 10:38:34.526,1.474469231592845,0.9348430286943394,0.8227530330380586,1.545773236999788,1.479190173511459,0.5375458851085927,0.3827487521411275,1.472878541007698,1.441602003539147,0.5882540386785614,0.5609631285455456,1.291098824428792,1.454936602825665,1.167789975575877,0.6466421208905017,1.032912606173596,1.068792415033722,1.033606241920332,0.4091085262730405,0.6854311134146286,834.0659340659341,755.8974358974359,817.5457875457876,807.4725274725275,705.5311355311355,0.144653,0.059998,1.049133,9.981537,11.693726,68.218384,647106.227106,139436483.516484,69284688.644689,85.678421,1,2,1,1,2,50.000000
2025-11-11 10:38:34.956,,,,,,,,,,,,,,,,,,,,,,,,,,,,,,,,,,,,,,,,,,/muse/elements/blink
2025-11-11 10:38:35.384,,,,,,,,,,,,,,,,,,,,,,,,,,,,,,,,,,,,,,,,,,/muse/elements/blink
2025-11-11 10:38:35.526,1.474469231592845,0.9348430286943394,0.9304474383861224,1.545773236999788,1.479190173511459,0.5375458851085927,0.4961089489677626,1.472878541007698,1.441602003539147,0.5882540386785614,0.5077923447991113,1.291098824428792,1.454936602825665,1.167789975575877,0.6046332239984887,1.032912606173596,1.068792415033722,1.033606241920332,0.1644560250074443,0.6854311134146286,772.8205128205128,781.2820512820513,813.1135531135532,783.6996336996338,536.3003663003664,0.258545,-0.012451,0.946594,-2.751465,8.209534,25.951996,319120.879121,139267252.747253,69160586.080586,85.983711,1,2,1,1,2,50.000000
2025-11-11 10:38:35.809,,,,,,,,,,,,,,,,,,,,,,,,,,,,,,,,,,,,,,,,,,/muse/elements/blink
2025-11-11 10:38:36.319,,,,,,,,,,,,,,,,,,,,,,,,,,,,,,,,,,,,,,,,,,/muse/elements/blink
2025-11-11 10:38:36.526,1.474469231592845,0.9348430286943394,0.582566722555522,1.545773236999788,1.479190173511459,0.5375458851085927,0.3460563015813675,1.472878541007698,1.441602003539147,0.5882540386785614,0.5830199702988503,1.291098824428792,1.454936602825665,1.167789975575877,0.9510398282407684,1.032912606173596,1.068792415033722,1.033606241920332,0.4584219927428316,0.6854311134146286,778.0586080586081,737.7655677655678,856.2271062271062,808.6813186813187,691.025641025641,0.184387,-0.027954,0.895142,12.404022,-10.400238,62.820129,316703.296703,139198754.578755,69128351.648352,89.525352,1,2,1,1,2,50.000000
2025-11-11 10:38:36.597,,,,,,,,,,,,,,,,,,,,,,,,,,,,,,,,,,,,,,,,,,/muse/elements/blink
2025-11-11 10:38:37.447,,,,,,,,,,,,,,,,,,,,,,,,,,,,,,,,,,,,,,,,,,/muse/elements/blink
2025-11-11 10:38:37.525,1.474469231592845,0.9348430286943394,0.582566722555522,1.545773236999788,1.479190173511459,0.5375458851085927,0.3460563015813675,1.472878541007698,1.441602003539147,0.5882540386785614,0.5830199702988503,1.291098824428792,1.454936602825665,1.167789975575877,0.9510398282407684,1.032912606173596,1.068792415033722,1.033606241920332,0.4584219927428316,0.6854311134146286,808.2783882783883,773.6263736263736,805.0549450549451,796.996336996337,701.5018315018315,0.239319,0.047852,1.007935,1.143951,-1.128998,20.673370,322344.322344,139164908.424908,68895457.875458,89.525352,1,2,1,1,2,50.000000
2025-11-11 10:38:37.939,,,,,,,,,,,,,,,,,,,,,,,,,,,,,,,,,,,,,,,,,,/muse/elements/blink
2025-11-11 10:38:38.321,,,,,,,,,,,,,,,,,,,,,,,,,,,,,,,,,,,,,,,,,,/muse/elements/blink
2025-11-11 10:38:38.526,1.768974151933609,0.9348430286943394,0.582566722555522,1.53714970175021,1.681167280157808,0.5375458851085927,0.3460563015813675,1.370964592546283,1.404752361229985,0.5882540386785614,0.5830199702988503,1.381683751352634,0.9780615151149941,1.167789975575877,0.9510398282407684,1.248389717701787,0.3785367275210698,1.033606241920332,0.4584219927428316,0.8060771734108877,798.6080586080586,641.0622710622711,784.1025641025641,791.7582417582418,574.981684981685,0.257263,-0.035156,0.944885,9.959106,-14.205933,39.417725,334432.234432,139182637.362637,68868864.468864,89.525352,1,1,1,1,1,50.000000
2025-11-11 10:38:38.938,,,,,,,,,,,,,,,,,,,,,,,,,,,,,,,,,,,,,,,,,,/muse/elements/blink
2025-11-11 10:38:39.258,,,,,,,,,,,,,,,,,,,,,,,,,,,,,,,,,,,,,,,,,,/muse/elements/blink
2025-11-11 10:38:39.526,1.768974151933609,0.9348430286943394,0.6524465701735991,1.53714970175021,1.681167280157808,0.5375458851085927,0.5278333934505614,1.370964592546283,1.404752361229985,0.5882540386785614,0.7682452790703516,1.381683751352634,0.9780615151149941,1.167789975575877,0.9250257005847751,1.248389717701787,0.3785367275210698,1.033606241920332,0.8023858299981742,0.8060771734108877,826.8131868131868,820.3663003663004,796.996336996337,811.9047619047619,850.1831501831502,0.222290,0.067871,0.930664,-2.751465,-1.420593,10.960999,332014.652015,139243882.783883,68706886.446886,89.525352,1,1,1,1,1,50.000000
2025-11-11 10:38:40.153,,,,,,,,,,,,,,,,,,,,,,,,,,,,,,,,,,,,,,,,,,/muse/elements/blink
2025-11-11 10:38:40.528,1.768974151933609,0.9348430286943394,0.2948961335534606,1.53714970175021,1.681167280157808,0.5375458851085927,0.09680493044853611,1.370964592546283,1.404752361229985,0.5882540386785614,0.4129866605649841,1.381683751352634,0.9780615151149941,1.167789975575877,0.8170345722619963,1.248389717701787,0.3785367275210698,1.033606241920332,0.5933084244960145,0.8060771734108877,809.0842490842491,811.9047619047619,803.040293040293,816.7399267399268,683.7728937728938,0.223328,-0.049377,0.964539,-2.003784,4.710388,-8.516083,335238.095238,139372014.652015,68700439.560440,89.118950,1,1,1,1,1,50.000000
2025-11-11 10:38:40.601,,,,,,,,,,,,,,,,,,,,,,,,,,,,,,,,,,,,,,,,,,/muse/elements/blink
2025-11-11 10:38:40.985,,,,,,,,,,,,,,,,,,,,,,,,,,,,,,,,,,,,,,,,,,/muse/elements/blink
2025-11-11 10:38:41.493,,,,,,,,,,,,,,,,,,,,,,,,,,,,,,,,,,,,,,,,,,/muse/elements/blink
2025-11-11 10:38:41.526,1.768974151933609,0.9348430286943394,0.7687105149515674,1.53714970175021,1.681167280157808,0.5375458851085927,0.4292484069342046,1.370964592546283,1.404752361229985,0.5882540386785614,0.6726085277049942,1.381683751352634,0.9780615151149941,1.167789975575877,0.8217136864962733,1.248389717701787,0.3785367275210698,1.033606241920332,0.6776753928164616,0.8060771734108877,776.4468864468864,919.8901098901099,798.6080586080586,782.0879120879121,678.1318681318681,0.052734,0.001587,1.005188,-5.106659,8.381500,-20.852814,360219.780220,139366373.626374,68735091.575092,99.910484,1,2,1,1,2,50.000000
2025-11-11 10:38:42.527,1.768974151933609,0.9348430286943394,1.051809786373669,1.53714970175021,1.681167280157808,0.5375458851085927,0.3767194224223418,1.370964592546283,1.404752361229985,0.5882540386785614,0.6674902611343252,1.381683751352634,0.9780615151149941,1.167789975575877,0.7540650873705632,1.248389717701787,0.3785367275210698,1.033606241920332,0.7904957373853546,0.8060771734108877,718.4249084249085,771.6117216117216,777.6556776556777,716.8131868131868,787.3260073260074,0.053101,-0.090759,1.108337,-4.815063,-17.144318,-54.109650,371501.831502,139346227.106227,68374065.934066,102.316750,1,2,1,1,2,50.000000
2025-11-11 10:38:42.708,,,,,,,,,,,,,,,,,,,,,,,,,,,,,,,,,,,,,,,,,,/muse/elements/blink
2025-11-11 10:38:43.526,1.768974151933609,0.9348430286943394,1.133089548447746,1.53714970175021,1.681167280157808,0.5375458851085927,0.4666863057838634,1.370964592546283,1.404752361229985,0.5882540386785614,0.8609864139607748,1.381683751352634,0.9780615151149941,1.167789975575877,0.8955120880334326,1.248389717701787,0.3785367275210698,1.033606241920332,0.7046979358807929,0.8060771734108877,802.2344322344322,556.0439560439561,788.9377289377289,804.2490842490843,838.0952380952381,0.174744,0.011963,1.012329,-13.757324,1.375732,-22.161255,326373.626374,139750769.230769,68817289.377289,96.648094,1,2,1,1,2,50.000000
2025-11-11 10:38:43.623,,,,,,,,,,,,,,,,,,,,,,,,,,,,,,,,,,,,,,,,,,/muse/elements/blink
2025-11-11 10:38:44.531,1.768974151933609,0.9348430286943394,0.942902712848406,1.53714970175021,1.681167280157808,0.5375458851085927,0.5623025705107361,1.370964592546283,1.404752361229985,0.5882540386785614,0.9112346036937958,1.381683751352634,0.9780615151149941,1.167789975575877,1.032925951609318,1.248389717701787,0.3785367275210698,1.033606241920332,0.7426771940694327,0.8060771734108877,813.919413919414,829.2307692307693,803.040293040293,783.6996336996338,655.1648351648352,0.261475,0.016602,0.974548,-9.585266,6.998291,-30.856781,328791.208791,139727399.267399,68943809.523810,95.176346,1,2,1,1,2,50.000000
2025-11-11 10:38:44.650,,,,,,,,,,,,,,,,,,,,,,,,,,,,,,,,,,,,,,,,,,/muse/elements/blink
2025-11-11 10:38:44.841,,,,,,,,,,,,,,,,,,,,,,,,,,,,,,,,,,,,,,,,,,/muse/elements/blink
2025-11-11 10:38:45.033,,,,,,,,,,,,,,,,,,,,,,,,,,,,,,,,,,,,,,,,,,/muse/elements/blink
2025-11-11 10:38:45.375,,,,,,,,,,,,,,,,,,,,,,,,,,,,,,,,,,,,,,,,,,/muse/elements/blink
2025-11-11 10:38:45.525,1.768974151933609,0.9348430286943394,0.8514925963387632,1.53714970175021,1.681167280157808,0.5375458851085927,0.9465148015347742,1.370964592546283,1.404752361229985,0.5882540386785614,0.8016762691367741,1.381683751352634,0.9780615151149941,1.167789975575877,1.039136800359426,1.248389717701787,0.3785367275210698,1.033606241920332,0.7628360926169934,0.8060771734108877,764.7619047619048,967.8388278388279,812.3076923076924,807.4725274725275,745.0183150183151,0.098572,-0.058167,0.877869,4.052429,6.983337,-21.742554,316703.296703,139652454.212454,69057435.897436,95.176346,1,2,1,1,2,50.000000
2025-11-11 10:38:46.526,1.768974151933609,0.9348430286943394,0.7512570904996477,1.53714970175021,1.681167280157808,0.5375458851085927,0.8292755141165798,1.370964592546283,1.404752361229985,0.5882540386785614,0.5586503815458549,1.381683751352634,0.9780615151149941,1.167789975575877,0.9646737714479083,1.248389717701787,0.3785367275210698,1.033606241920332,0.9724614104051602,0.8060771734108877,760.7326007326008,971.0622710622711,806.6666666666667,752.2710622710623,564.1025641025641,-0.094055,0.044434,1.004517,1.158905,-15.671387,-43.993530,311062.271062,139387326.007326,68855970.695971,90.201134,1,2,1,1,2,50.000000
2025-11-11 10:38:46.764,,,,,,,,,,,,,,,,,,,,,,,,,,,,,,,,,,,,,,,,,,/muse/elements/blink
2025-11-11 10:38:47.526,1.768974151933609,0.9348430286943394,0.4714387162276225,1.53714970175021,1.681167280157808,0.5375458851085927,0.01876824257650627,1.370964592546283,1.404752361229985,0.5882540386785614,0.3866694823140017,1.381683751352634,0.9780615151149941,1.167789975575877,1.021696905377905,1.248389717701787,0.3785367275210698,1.033606241920332,1.063215728967396,0.8060771734108877,785.3113553113553,820.3663003663004,805.4578754578755,802.2344322344322,735.7509157509157,0.173340,0.040100,0.977844,-1.405640,-3.805695,-24.426727,315091.575092,139551721.611722,68952673.992674,90.201134,1,2,1,1,2,50.000000
2025-11-11 10:38:48.092,,,,,,,,,,,,,,,,,,,,,,,,,,,,,,,,,,,,,,,,,,/muse/elements/blink
2025-11-11 10:38:48.526,1.768974151933609,0.9348430286943394,0.9510618332947195,1.53714970175021,1.681167280157808,0.5375458851085927,0.6900381466897462,1.370964592546283,1.404752361229985,0.5882540386785614,0.6287394360535254,1.381683751352634,0.9780615151149941,1.167789975575877,0.6470630811974554,1.248389717701787,0.3785367275210698,1.033606241920332,0.607226141683777,0.8060771734108877,805.4578754578755,801.025641025641,790.952380952381,799.8168498168499,925.934065934066,0.165833,0.041504,0.954346,-7.372131,-5.659943,-26.699677,323956.043956,139513846.153846,69025201.465201,90.201134,1,2,1,1,2,50.000000
2025-11-11 10:38:48.921,,,,,,,,,,,,,,,,,,,,,,,,,,,,,,,,,,,,,,,,,,/muse/elements/blink
2025-11-11 10:38:49.410,,,,,,,,,,,,,,,,,,,,,,,,,,,,,,,,,,,,,,,,,,/muse/elements/blink
2025-11-11 10:38:49.529,1.768974151933609,0.9348430286943394,0.8401387427915924,1.53714970175021,1.681167280157808,0.5375458851085927,0.5126775495859843,1.370964592546283,1.404752361229985,0.5882540386785614,0.6768654693779634,1.381683751352634,0.9780615151149941,1.167789975575877,0.9429298925423981,1.248389717701787,0.3785367275210698,1.033606241920332,0.7743908660807061,0.8060771734108877,816.3369963369963,801.025641025641,807.8754578754579,819.5604395604396,693.8461538461538,0.121826,-0.030151,0.966736,1.682281,6.572113,-12.785339,330402.930403,139521904.761905,68847106.227106,90.201134,1,2,1,1,2,50.000000
2025-11-11 10:38:49.987,,,,,,,,,,,,,,,,,,,,,,,,,,,,,,,,,,,,,,,,,,/muse/elements/blink
2025-11-11 10:38:50.527,1.768974151933609,0.9348430286943394,0.5623203471345338,1.53714970175021,1.681167280157808,0.5375458851085927,0.4463274929641022,1.370964592546283,1.404752361229985,0.5882540386785614,0.6780962075945188,1.381683751352634,0.9780615151149941,1.167789975575877,0.8207724985149348,1.248389717701787,0.3785367275210698,1.033606241920332,0.8856177130364387,0.8060771734108877,798.6080586080586,882.4175824175825,802.2344322344322,780.4761904761905,753.8827838827839,0.096741,0.046875,0.981689,-4.396362,1.517792,3.723450,351355.311355,139392967.032967,68648864.468864,86.307693,1,2,1,1,2,50.000000
2025-11-11 10:38:51.222,,,,,,,,,,,,,,,,,,,,,,,,,,,,,,,,,,,,,,,,,,/muse/elements/blink
2025-11-11 10:38:51.526,0.9588420216523489,0.9348430286943394,0.6910639504168794,0.8145578631751914,0.6852326341913321,0.5375458851085927,0.5480237042030797,0.8043153618072032,1.093701289030836,0.5882540386785614,0.7517370799040101,0.8196835993468248,0.9944451861417317,1.167789975575877,0.7686841306047413,0.9044358249356236,0.8904035055525954,1.033606241920332,0.7065701484450339,0.3111023522386384,824.7985347985348,814.3223443223443,807.8754578754579,817.948717948718,1069.377289377289,-0.030579,-0.027283,1.173218,2.863617,18.706970,4.501038,399706.959707,139322857.142857,68545714.285714,83.367668,1,1,1,1,1,50.000000
2025-11-11 10:38:52.532,1.000865524456328,0.9348430286943394,0.6910639504168794,0.7908034405225424,0.6374550631977284,0.5375458851085927,0.5480237042030797,0.8171097074834796,0.6775628266701935,0.5882540386785614,0.7517370799040101,0.8016468476398572,0.9482593924139952,1.167789975575877,0.7686841306047413,0.9145022047054348,0.8988742193063447,1.033606241920332,0.7065701484450339,0.3295116566486713,797.3992673992674,844.5421245421246,815.1282051282052,770,531.4652014652015,0.034424,0.057373,1.067932,2.504730,3.327179,26.654816,576190.476190,139368791.208791,68463516.483516,82.810371,1,1,1,1,1,50.000000
2025-11-11 10:38:52.947,,,,,,,,,,,,,,,,,,,,,,,,,,,,,,,,,,,,,,,,,,/muse/elements/blink
2025-11-11 10:38:53.531,0.6567054315733284,0.9348430286943394,0.5571560225317993,0.769854112550637,0.7994687180020403,0.5375458851085927,0.3170461239682064,0.7623936138610292,0.8522072333103694,0.5882540386785614,0.4128384030489167,0.6457810616022035,1.25944956133939,1.167789975575877,0.7117009839150717,1.110113804627288,0.9091558870031407,1.033606241920332,0.7346878573168681,0.7773097211283257,838.4981684981685,838.0952380952381,810.2930402930403,820.7692307692308,691.8315018315019,0.118652,0.035828,1.010681,6.579590,3.611298,12.172241,594725.274725,139272893.772894,68328937.728938,83.032204,1,1,1,1,1,50.000000
2025-11-11 10:38:54.075,,,,,,,,,,,,,,,,,,,,,,,,,,,,,,,,,,,,,,,,,,/muse/elements/blink
2025-11-11 10:38:54.526,0.6567054315733284,0.9348430286943394,0.4266632790221666,0.769854112550637,0.7994687180020403,0.5375458851085927,0.2065886467193969,0.7623936138610292,0.8522072333103694,0.5882540386785614,0.3388264305335951,0.6457810616022035,1.25944956133939,1.167789975575877,0.7501983988871667,1.110113804627288,0.9091558870031407,1.033606241920332,0.7673147428055045,0.7773097211283257,814.7252747252747,770.4029304029305,804.6520146520147,805.8608058608058,772.8205128205128,0.165833,0.034607,0.956726,11.080627,2.601929,43.223419,385201.465201,139358315.018315,68435311.355311,83.562408,1,1,1,1,1,50.000000
2025-11-11 10:38:55.189,,,,,,,,,,,,,,,,,,,,,,,,,,,,,,,,,,,,,,,,,,/muse/elements/blink
2025-11-11 10:38:55.526,0.6567054315733284,0.9348430286943394,0.2979269614028573,0.769854112550637,0.7994687180020403,0.5375458851085927,-0.05908405101436105,0.7623936138610292,0.8522072333103694,0.5882540386785614,0.0531747069369583,0.6457810616022035,1.25944956133939,1.167789975575877,0.8477071524682788,1.110113804627288,0.9091558870031407,1.033606241920332,0.8052802702951253,0.7773097211283257,837.6923076923077,809.0842490842491,787.7289377289378,807.0695970695971,599.1575091575091,0.208313,0.040955,1.034119,3.962708,5.069275,7.215118,316703.296703,139426007.326007,68594065.934066,83.562408,1,2,1,1,2,50.000000
2025-11-11 10:38:56.232,,,,,,,,,,,,,,,,,,,,,,,,,,,,,,,,,,,,,,,,,,/muse/elements/blink
2025-11-11 10:38:56.526,0.6567054315733284,0.9348430286943394,1.07910889017414,0.769854112550637,0.7994687180020403,0.5375458851085927,1.171218421477791,0.7623936138610292,0.8522072333103694,0.5882540386785614,0.7864671341738075,0.6457810616022035,1.25944956133939,1.167789975575877,0.7626394053330228,1.110113804627288,0.9091558870031407,1.033606241920332,0.6138622252142908,0.7773097211283257,801.025641025641,878.3882783882784,811.9047619047619,802.2344322344322,688.2051282051282,0.016052,0.005005,1.004761,5.420685,9.046936,53.421783,316703.296703,139228571.428571,68496556.776557,81.321571,1,2,1,1,2,50.000000
2025-11-11 10:38:57.526,0.6567054315733284,0.9348430286943394,1.061439703737052,0.769854112550637,0.7994687180020403,0.5375458851085927,1.160968303249945,0.7623936138610292,0.8522072333103694,0.5882540386785614,0.7827540501993215,0.6457810616022035,1.25944956133939,1.167789975575877,0.7544826749095326,1.110113804627288,0.9091558870031407,1.033606241920332,0.6357661603948386,0.7773097211283257,798.2051282051282,932.3809523809524,803.040293040293,792.1611721611722,668.0586080586081,-0.106140,0.127075,0.973938,-1.555176,4.904785,13.847046,319926.739927,138975531.135531,68046886.446886,78.698463,1,2,1,1,2,50.000000
2025-11-11 10:38:57.916,,,,,,,,,,,,,,,,,,,,,,,,,,,,,,,,,,,,,,,,,,/muse/elements/blink
2025-11-11 10:38:58.519,,,,,,,,,,,,,,,,,,,,,,,,,,,,,,,,,,,,,,,,,,/muse/elements/blink
2025-11-11 10:38:58.530,0.6567054315733284,0.9348430286943394,1.061439703737052,0.769854112550637,0.7994687180020403,0.5375458851085927,1.160968303249945,0.7623936138610292,0.8522072333103694,0.5882540386785614,0.7827540501993215,0.6457810616022035,1.25944956133939,1.167789975575877,0.7544826749095326,1.110113804627288,0.9091558870031407,1.033606241920332,0.6357661603948386,0.7773097211283257,836.0805860805862,64.06593406593407,821.1721611721612,837.2893772893773,620.5128205128206,0.250977,0.061829,0.952942,4.553375,-9.540405,38.385925,327179.487179,139017435.897436,67772893.772894,78.698463,1,2,1,1,2,50.000000
2025-11-11 10:38:59.158,,,,,,,,,,,,,,,,,,,,,,,,,,,,,,,,,,,,,,,,,,/muse/elements/blink
2025-11-11 10:38:59.532,0.6567054315733284,0.9348430286943394,1.061439703737052,0.769854112550637,0.7994687180020403,0.5375458851085927,1.160968303249945,0.7623936138610292,0.8522072333103694,0.5882540386785614,0.7827540501993215,0.6457810616022035,1.25944956133939,1.167789975575877,0.7544826749095326,1.110113804627288,0.9091558870031407,1.033606241920332,0.6357661603948386,0.7773097211283257,830.8424908424909,653.1501831501831,808.2783882783883,844.9450549450549,815.934065934066,0.384216,0.058838,0.850830,0.485992,-5.458069,7.005768,330402.930403,139354285.714286,68001758.241758,79.443436,1,2,1,1,2,50.000000
2025-11-11 10:38:59.648,,,,,,,,,,,,,,,,,,,,,,,,,,,,,,,,,,,,,,,,,,/muse/elements/blink
2025-11-11 10:39:00.525,0.6567054315733284,0.9348430286943394,1.061439703737052,0.769854112550637,0.7994687180020403,0.5375458851085927,1.160968303249945,0.7623936138610292,0.8522072333103694,0.5882540386785614,0.7827540501993215,0.6457810616022035,1.25944956133939,1.167789975575877,0.7544826749095326,1.110113804627288,0.9091558870031407,1.033606241920332,0.6357661603948386,0.7773097211283257,782.893772893773,776.4468864468864,801.8315018315019,810.2930402930403,832.0512820512821,0.330444,-0.000061,0.947571,-1.472931,-15.663910,30.512848,330402.930403,139328498.168498,68014652.014652,84.737679,1,2,1,1,2,50.000000
2025-11-11 10:39:00.693,,,,,,,,,,,,,,,,,,,,,,,,,,,,,,,,,,,,,,,,,,/muse/elements/blink
2025-11-11 10:39:01.526,0.6567054315733284,0.9348430286943394,0.5663940504129709,0.769854112550637,0.7994687180020403,0.5375458851085927,0.3967776893332642,0.7623936138610292,0.8522072333103694,0.5882540386785614,0.2453089569288502,0.6457810616022035,1.25944956133939,1.167789975575877,0.6774887231008896,1.110113804627288,0.9091558870031407,1.033606241920332,0.4421926420266535,0.7773097211283257,804.6520146520147,1650,774.0293040293041,778.8644688644689,705.934065934066,0.492920,-0.011902,0.869019,-6.086121,6.923523,-8.202057,311868.131868,139553333.333333,69528058.608059,84.737679,1,2,1,1,2,50.000000
2025-11-11 10:39:01.574,,,,,,,,,,,,,,,,,,,,,,,,,,,,,,,,,,,,,,,,,,/muse/elements/blink
2025-11-11 10:39:02.086,,,,,,,,,,,,,,,,,,,,,,,,,,,,,,,,,,,,,,,,,,/muse/elements/blink
2025-11-11 10:39:02.402,,,,,,,,,,,,,,,,,,,,,,,,,,,,,,,,,,,,,,,,,,/muse/elements/blink
2025-11-11 10:39:02.526,0.6567054315733284,0.9348430286943394,0.7669602657578054,0.769854112550637,0.7994687180020403,0.5375458851085927,0.5936496960732498,0.7623936138610292,0.8522072333103694,0.5882540386785614,0.2068594194117058,0.6457810616022035,1.25944956133939,1.167789975575877,0.3393447369549824,1.110113804627288,0.9091558870031407,1.033606241920332,-0.04413169199650801,0.7773097211283257,794.1758241758242,1610.512820512821,814.7252747252747,808.2783882783883,875.1648351648352,0.356384,-0.028320,0.920837,-1.076660,4.770203,-18.228455,310256.410256,139483223.443223,69378168.498168,84.976562,1,2,4,1,2,50.000000
2025-11-11 10:39:02.933,,,,,,,,,,,,,,,,,,,,,,,,,,,,,,,,,,,,,,,,,,/muse/elements/blink
2025-11-11 10:39:03.126,,,,,,,,,,,,,,,,,,,,,,,,,,,,,,,,,,,,,,,,,,/muse/elements/blink
2025-11-11 10:39:03.300,,,,,,,,,,,,,,,,,,,,,,,,,,,,,,,,,,,,,,,,,,/muse/elements/blink
2025-11-11 10:39:03.526,0.6567054315733284,0.9348430286943394,1.411406110380903,0.769854112550637,0.7994687180020403,0.5375458851085927,1.179555706124465,0.7623936138610292,0.8522072333103694,0.5882540386785614,0.9482387674271591,0.6457810616022035,1.25944956133939,1.167789975575877,0.8806278285516435,1.110113804627288,0.9091558870031407,1.033606241920332,0.6589487710567379,0.7773097211283257,835.6776556776557,1100.40293040293,807.4725274725275,840.9157509157509,754.6886446886447,0.261719,-0.011597,1.038330,-9.375916,20.867767,-41.114960,320732.600733,139471135.531136,69057435.897436,81.588257,1,2,2,1,2,50.000000
2025-11-11 10:39:03.726,,,,,,,,,,,,,,,,,,,,,,,,,,,,,,,,,,,,,,,,,,/muse/elements/blink
2025-11-11 10:39:04.005,,,,,,,,,,,,,,,,,,,,,,,,,,,,,,,,,,,,,,,,,,/muse/elements/blink
2025-11-11 10:39:04.264,,,,,,,,,,,,,,,,,,,,,,,,,,,,,,,,,,,,,,,,,,/muse/elements/blink
2025-11-11 10:39:04.530,0.6567054315733284,0.9348430286943394,1.479290795362425,0.769854112550637,0.7994687180020403,0.5375458851085927,0.9735246441491806,0.7623936138610292,0.8522072333103694,0.5882540386785614,0.9424209676594018,0.6457810616022035,1.25944956133939,1.167789975575877,0.8475631770551626,1.110113804627288,0.9091558870031407,1.033606241920332,0.527325784479626,0.7773097211283257,771.2087912087912,1238.205128205128,832.0512820512821,778.8644688644689,595.1282051282052,0.002380,0.033386,0.905273,-10.856323,-0.142059,-49.287109,330402.930403,139500146.520147,69310476.190476,74.922844,1,2,2,1,2,50.000000
2025-11-11 10:39:04.861,,,,,,,,,,,,,,,,,,,,,,,,,,,,,,,,,,,,,,,,,,/muse/elements/blink
2025-11-11 10:39:05.459,,,,,,,,,,,,,,,,,,,,,,,,,,,,,,,,,,,,,,,,,,/muse/elements/blink
2025-11-11 10:39:05.534,0.6567054315733284,0.9348430286943394,1.466857429447783,0.769854112550637,0.7994687180020403,0.5375458851085927,0.803433285211113,0.7623936138610292,0.8522072333103694,0.5882540386785614,0.6377241059593524,0.6457810616022035,1.25944956133939,1.167789975575877,0.8505471224121157,1.110113804627288,0.9091558870031407,1.033606241920332,0.4312310555769354,0.7773097211283257,803.8461538461539,888.0586080586081,795.3846153846154,807.0695970695971,801.025641025641,0.188232,-0.010132,0.991638,-5.046844,-0.672913,-15.073242,318315.018315,139542857.142857,69192820.512821,74.922844,1,2,1,1,2,50.000000
2025-11-11 10:39:05.652,,,,,,,,,,,,,,,,,,,,,,,,,,,,,,,,,,,,,,,,,,/muse/elements/blink
2025-11-11 10:39:06.532,0.6567054315733284,0.9348430286943394,0.896569790493472,0.769854112550637,0.7994687180020403,0.5375458851085927,0.7222431969140134,0.7623936138610292,0.8522072333103694,0.5882540386785614,0.9328265224162862,0.6457810616022035,1.25944956133939,1.167789975575877,0.7894434887057686,1.110113804627288,0.9091558870031407,1.033606241920332,0.4687701421457489,0.7773097211283257,795.3846153846154,851.3919413919414,811.0989010989011,788.9377289377289,758.7179487179487,0.155701,0.070923,0.939575,-11.491852,-6.788940,-25.137024,313479.853480,139586373.626374,69436190.476190,74.922844,1,2,1,1,2,50.000000
2025-11-11 10:39:06.863,,,,,,,,,,,,,,,,,,,,,,,,,,,,,,,,,,,,,,,,,,/muse/elements/blink
2025-11-11 10:39:07.200,,,,,,,,,,,,,,,,,,,,,,,,,,,,,,,,,,,,,,,,,,/muse/elements/blink
2025-11-11 10:39:07.526,0.6567054315733284,0.9348430286943394,1.146287428872378,0.769854112550637,0.7994687180020403,0.5375458851085927,0.8339657964280807,0.7623936138610292,0.8522072333103694,0.5882540386785614,0.8811238086697002,0.6457810616022035,1.25944956133939,1.167789975575877,0.7470843159026507,1.110113804627288,0.9091558870031407,1.033606241920332,0.5227051245407572,0.7773097211283257,809.0842490842491,834.0659340659341,794.1758241758242,802.6373626373627,737.7655677655678,0.190552,-0.043396,0.977661,-11.723633,5.831909,-33.540955,314285.714286,139633113.553114,69490183.150183,75.267761,1,2,1,1,2,50.000000
2025-11-11 10:39:08.528,0.6567054315733284,0.9348430286943394,1.211843360835027,0.769854112550637,0.7994687180020403,0.5375458851085927,0.784855228811318,0.7623936138610292,0.8522072333103694,0.5882540386785614,0.7154502534649732,0.6457810616022035,1.25944956133939,1.167789975575877,0.7429298503143035,1.110113804627288,0.9091558870031407,1.033606241920332,0.5735301797143555,0.7773097211283257,791.7582417582418,776.0439560439561,806.6666666666667,790.952380952381,744.2124542124542,0.148987,0.031799,1.073547,-7.230072,6.003876,-31.238098,323956.043956,139554139.194139,69392673.992674,76.958992,1,2,1,1,2,50.000000
2025-11-11 10:39:08.709,,,,,,,,,,,,,,,,,,,,,,,,,,,,,,,,,,,,,,,,,,/muse/elements/blink
2025-11-11 10:39:09.526,0.6567054315733284,0.9348430286943394,1.211843360835027,0.769854112550637,0.7994687180020403,0.5375458851085927,0.784855228811318,0.7623936138610292,0.8522072333103694,0.5882540386785614,0.7154502534649732,0.6457810616022035,1.25944956133939,1.167789975575877,0.7429298503143035,1.110113804627288,0.9091558870031407,1.033606241920332,0.5735301797143555,0.7773097211283257,794.981684981685,765.5677655677656,807.4725274725275,811.9047619047619,628.974358974359,0.216431,0.000427,1.113464,-2.153320,-6.519775,-19.364929,337655.677656,139552527.472527,69401538.461538,76.958992,1,2,1,1,2,50.000000
2025-11-11 10:39:10.008,,,,,,,,,,,,,,,,,,,,,,,,,,,,,,,,,,,,,,,,,,/muse/elements/blink
2025-11-11 10:39:10.529,0.6567054315733284,0.9348430286943394,0.5293022225277424,0.769854112550637,0.7994687180020403,0.5375458851085927,0.1983413798656353,0.7623936138610292,0.8522072333103694,0.5882540386785614,0.8006356272503085,0.6457810616022035,1.25944956133939,1.167789975575877,0.8364171895780422,1.110113804627288,0.9091558870031407,1.033606241920332,0.3916172659030166,0.7773097211283257,807.8754578754579,745.4212454212454,811.5018315018315,814.3223443223443,857.8388278388279,0.185974,0.009399,0.937744,3.850555,7.170258,15.200348,365860.805861,139555750.915751,69251648.351648,76.958992,1,2,1,1,2,50.000000
2025-11-11 10:39:10.539,,,,,,,,,,,,,,,,,,,,,,,,,,,,,,,,,,,,,,,,,,/muse/elements/blink
2025-11-11 10:39:10.964,,,,,,,,,,,,,,,,,,,,,,,,,,,,,,,,,,,,,,,,,,/muse/elements/blink
2025-11-11 10:39:11.528,0.6567054315733284,0.9348430286943394,0.4261319339653038,0.769854112550637,0.7994687180020403,0.5375458851085927,0.2176193087284256,0.7623936138610292,0.8522072333103694,0.5882540386785614,0.813513569043705,0.6457810616022035,1.25944956133939,1.167789975575877,0.915335769163643,1.110113804627288,0.9091558870031407,1.033606241920332,0.5816839039071906,0.7773097211283257,805.0549450549451,720.8424908424909,804.2490842490843,805.8608058608058,868.3150183150184,0.040222,0.124023,1.007751,7.020721,1.607513,10.744171,406959.706960,139496117.216117,69420073.260073,76.958992,1,2,1,1,2,50.000000
2025-11-11 10:39:12.092,,,,,,,,,,,,,,,,,,,,,,,,,,,,,,,,,,,,,,,,,,/muse/elements/blink
2025-11-11 10:39:12.532,0.6567054315733284,0.9348430286943394,0.9632499777843025,0.769854112550637,0.7994687180020403,0.5375458851085927,0.6176584815494351,0.7623936138610292,0.8522072333103694,0.5882540386785614,0.7860808206759051,0.6457810616022035,1.25944956133939,1.167789975575877,0.8840737239907245,1.110113804627288,0.9091558870031407,1.033606241920332,0.5893361176261761,0.7773097211283257,827.2161172161173,923.919413919414,799.0109890109891,812.7106227106227,719.6336996336996,-0.153870,0.123169,0.991699,-1.099091,14.706879,23.028564,526227.106227,139473553.113553,69365274.725275,79.084587,1,2,1,1,2,50.000000
2025-11-11 10:39:12.975,,,,,,,,,,,,,,,,,,,,,,,,,,,,,,,,,,,,,,,,,,/muse/elements/blink
2025-11-11 10:39:13.526,0.6567054315733284,0.9348430286943394,0.9632499777843025,0.769854112550637,0.7994687180020403,0.5375458851085927,0.6176584815494351,0.7623936138610292,0.8522072333103694,0.5882540386785614,0.7860808206759051,0.6457810616022035,1.25944956133939,1.167789975575877,0.8840737239907245,1.110113804627288,0.9091558870031407,1.033606241920332,0.5893361176261761,0.7773097211283257,790.1465201465202,812.3076923076924,801.4285714285714,798.2051282051282,889.2673992673992,-0.006531,0.141724,0.923096,-3.738403,-7.491760,-1.614990,821172.161172,139489670.329670,69101758.241758,78.719719,1,2,1,1,2,50.000000
2025-11-11 10:39:14.526,0.6567054315733284,0.9348430286943394,0.2407366600862869,0.769854112550637,0.7994687180020403,0.5375458851085927,0.3376606908029212,0.7623936138610292,0.8522072333103694,0.5882540386785614,0.5613907480827914,0.6457810616022035,1.25944956133939,1.167789975575877,0.8826570866415892,1.110113804627288,0.9091558870031407,1.033606241920332,0.7837782977837991,0.7773097211283257,774.4322344322345,865.0915750915751,782.0879120879121,798.2051282051282,736.5567765567765,0.063782,0.160217,0.966553,2.302856,3.327179,21.802368,333626.373626,139420366.300366,69138021.978022,77.850647,1,2,1,1,2,50.000000
2025-11-11 10:39:14.530,,,,,,,,,,,,,,,,,,,,,,,,,,,,,,,,,,,,,,,,,,/muse/elements/blink
2025-11-11 10:39:14.808,,,,,,,,,,,,,,,,,,,,,,,,,,,,,,,,,,,,,,,,,,/muse/elements/blink
2025-11-11 10:39:15.526,0.6567054315733284,0.9348430286943394,0.4146911160242578,0.769854112550637,0.7994687180020403,0.5375458851085927,0.5479353835079257,0.7623936138610292,0.8522072333103694,0.5882540386785614,0.6593935229308904,0.6457810616022035,1.25944956133939,1.167789975575877,1.005607525576673,1.110113804627288,0.9091558870031407,1.033606241920332,0.919757337892615,0.7773097211283257,799.8168498168499,391.6483516483516,785.3113553113553,805.4578754578755,624.9450549450549,0.309692,0.094727,0.928711,-1.315918,-12.000275,18.931274,315897.435897,139803150.183150,69026813.186813,77.850647,1,2,1,1,2,50.000000
2025-11-11 10:39:15.933,,,,,,,,,,,,,,,,,,,,,,,,,,,,,,,,,,,,,,,,,,/muse/elements/blink
2025-11-11 10:39:16.526,0.6567054315733284,0.9348430286943394,0.5647797566687053,0.769854112550637,0.7994687180020403,0.5375458851085927,0.688551525836649,0.7623936138610292,0.8522072333103694,0.5882540386785614,0.6583297205304571,0.6457810616022035,1.25944956133939,1.167789975575877,1.06902112388219,1.110113804627288,0.9091558870031407,1.033606241920332,0.9373736043571974,0.7773097211283257,743.4065934065934,524.6153846153846,789.3406593406594,738.974358974359,674.1025641025641,0.256531,0.028198,0.895691,13.742371,0.852356,36.195221,318315.018315,139866007.326007,69035677.655678,77.839813,1,2,1,1,2,50.000000
2025-11-11 10:39:16.726,,,,,,,,,,,,,,,,,,,,,,,,,,,,,,,,,,,,,,,,,,/muse/elements/blink
2025-11-11 10:39:17.527,0.6567054315733284,0.9348430286943394,0.6698543164470113,0.769854112550637,0.7994687180020403,0.5375458851085927,0.6521769622904657,0.7623936138610292,0.8522072333103694,0.5882540386785614,-0.2183746315354803,0.6457810616022035,1.25944956133939,1.167789975575877,0.8494393158908039,1.110113804627288,0.9091558870031407,1.033606241920332,0.6715251444766158,0.7773097211283257,702.3076923076924,710.3663003663004,819.5604395604396,720.8424908424909,702.3076923076924,0.216003,0.073120,0.931519,-0.052338,20.292053,25.361328,323956.043956,139766886.446886,68902710.622711,77.738747,1,2,1,1,2,50.000000
2025-11-11 10:39:17.666,,,,,,,,,,,,,,,,,,,,,,,,,,,,,,,,,,,,,,,,,,/muse/elements/blink
2025-11-11 10:39:18.476,,,,,,,,,,,,,,,,,,,,,,,,,,,,,,,,,,,,,,,,,,/muse/elements/blink
2025-11-11 10:39:18.526,0.6567054315733284,0.9348430286943394,0.7694499770679383,0.769854112550637,0.7994687180020403,0.5375458851085927,0.6282221692302514,0.7623936138610292,0.8522072333103694,0.5882540386785614,-0.2236598534144007,0.6457810616022035,1.25944956133939,1.167789975575877,0.8987551550215103,1.110113804627288,0.9091558870031407,1.033606241920332,0.8488992129552879,0.7773097211283257,850.989010989011,596.3369963369963,786.5201465201466,850.1831501831502,714.7985347985348,0.127136,0.066406,1.028870,5.659943,-8.471222,54.610596,340879.120879,139654065.934066,68636776.556777,77.738747,1,2,1,1,2,50.000000
2025-11-11 10:39:19.526,0.6567054315733284,0.9348430286943394,0.7694499770679383,0.769854112550637,0.7994687180020403,0.5375458851085927,0.6282221692302514,0.7623936138610292,0.8522072333103694,0.5882540386785614,-0.2236598534144007,0.6457810616022035,1.25944956133939,1.167789975575877,0.8987551550215103,1.110113804627288,0.9091558870031407,1.033606241920332,0.8488992129552879,0.7773097211283257,719.2307692307693,805.8608058608058,784.1025641025641,717.6190476190476,807.0695970695971,0.249878,0.075195,0.968628,-6.078644,-6.026306,0.082245,336043.956044,139783003.663004,68589230.769231,77.738747,1,2,1,1,2,50.000000
2025-11-11 10:39:19.671,,,,,,,,,,,,,,,,,,,,,,,,,,,,,,,,,,,,,,,,,,/muse/elements/blink
2025-11-11 10:39:20.011,,,,,,,,,,,,,,,,,,,,,,,,,,,,,,,,,,,,,,,,,,/muse/elements/blink
2025-11-11 10:39:20.530,0.6567054315733284,0.9348430286943394,0.3460504032450614,0.769854112550637,0.7994687180020403,0.5375458851085927,0.1585374526185474,0.7623936138610292,0.8522072333103694,0.5882540386785614,0.2348636183131647,0.6457810616022035,1.25944956133939,1.167789975575877,0.9047858621393033,1.110113804627288,0.9091558870031407,1.033606241920332,0.3626159520127624,0.7773097211283257,821.978021978022,780.0732600732601,813.919413919414,808.2783882783883,682.967032967033,0.139343,-0.020264,0.957581,2.781372,2.048645,-2.773895,340073.260073,139732234.432234,68653699.633700,77.738747,1,2,1,1,2,50.000000
2025-11-11 10:39:20.798,,,,,,,,,,,,,,,,,,,,,,,,,,,,,,,,,,,,,,,,,,/muse/elements/blink
2025-11-11 10:39:21.501,,,,,,,,,,,,,,,,,,,,,,,,,,,,,,,,,,,,,,,,,,/muse/elements/blink
2025-11-11 10:39:21.533,0.6567054315733284,0.9348430286943394,0.814255103227836,0.769854112550637,0.7994687180020403,0.5375458851085927,0.4789887762720475,0.7623936138610292,0.8522072333103694,0.5882540386785614,0.6210906731344038,0.6457810616022035,1.25944956133939,1.167789975575877,0.9282767364301064,1.110113804627288,0.9091558870031407,1.033606241920332,0.5135178563955922,0.7773097211283257,773.6263736263736,984.3589743589744,825.6043956043957,775.2380952380953,1003.699633699634,-0.116028,0.119568,1.017761,3.087921,7.813263,-25.996857,417435.897436,139484029.304029,68522344.322344,78.499191,1,2,1,1,2,50.000000
2025-11-11 10:39:22.525,0.6567054315733284,0.9348430286943394,1.0652133642696,0.9014135448993777,0.7994687180020403,0.5375458851085927,0.7277958981825449,0.4302622628728361,0.8522072333103694,0.5882540386785614,0.6127713865335555,0.4317304591416883,1.25944956133939,1.167789975575877,0.8635304364444931,1.062342378952742,0.9091558870031407,1.033606241920332,0.6501952022786085,0.8457816171328238,812.7106227106227,887.2527472527473,796.996336996337,813.919413919414,804.6520146520147,-0.158203,0.029663,1.066528,-0.882263,4.448700,-41.271973,605201.465201,139446153.846154,68362783.882784,78.499191,1,2,1,1,2,50.000000
2025-11-11 10:39:23.536,0.6180467656174434,0.9348430286943394,0.4558884909437487,0.580349532664675,0.5027887555693732,0.5375458851085927,0.1035282590687308,0.2756974853451533,1.626025147636081,0.5882540386785614,0.5670593672584007,0.7747838465946867,1.361933417968736,1.167789975575877,0.8283167062277749,0.9927123926330704,0.9371514013108556,1.033606241920332,0.9727570429529182,0.7299976754654229,806.2637362637363,764.7619047619048,812.7106227106227,803.040293040293,693.4432234432235,-0.095886,-0.018616,0.908508,1.555176,4.276733,-10.587158,340879.120879,139661318.681319,68345054.945055,78.499191,1,1,1,1,1,50.000000
2025-11-11 10:39:24.273,,,,,,,,,,,,,,,,,,,,,,,,,,,,,,,,,,,,,,,,,,/muse/elements/blink
2025-11-11 10:39:24.526,1.097500371390112,0.9348430286943394,0.2730918804184879,0.3950372784913835,0.5364423864892557,0.5375458851085927,-0.2716562021448488,0.2256710759120492,1.261431943875706,0.5882540386785614,0.2800879183035171,0.7303570471359132,1.241931103999605,1.167789975575877,0.9406210396569564,0.9523377137812481,0.8803600475348969,1.033606241920332,0.6911245077976313,0.7011108691155005,809.0842490842491,799.4139194139194,797.3992673992674,799.8168498168499,809.0842490842491,-0.093811,0.023621,0.988464,-0.037384,-9.697418,-16.351776,331208.791209,139707252.747253,68390989.010989,76.836319,1,1,1,1,1,50.000000
2025-11-11 10:39:25.167,,,,,,,,,,,,,,,,,,,,,,,,,,,,,,,,,,,,,,,,,,/muse/elements/blink
2025-11-11 10:39:25.526,1.341461169684317,0.9348430286943394,0.4602141501152591,0.2494119815878146,0.7257152243949895,0.5375458851085927,0.04166352236320173,0.368322731017337,1.090762973702847,0.5882540386785614,0.2030879323612179,0.1121138245128826,1.145220699906597,1.167789975575877,1.022087610744562,1.010015554180969,0.8722571811081822,1.033606241920332,0.7354003444130482,0.6890165180665827,794.5787545787546,758.3150183150184,780.8791208791209,799.8168498168499,616.8864468864469,0.197876,0.001892,0.959045,-3.678589,-7.140350,-32.254944,311868.131868,139995750.915751,69179926.739927,76.062691,1,1,1,1,1,50.000000
2025-11-11 10:39:25.849,,,,,,,,,,,,,,,,,,,,,,,,,,,,,,,,,,,,,,,,,,/muse/elements/blink
2025-11-11 10:39:26.526,1.341461169684317,0.9348430286943394,0.4602141501152591,0.2494119815878146,0.7257152243949895,0.5375458851085927,0.04166352236320173,0.368322731017337,1.090762973702847,0.5882540386785614,0.2030879323612179,0.1121138245128826,1.145220699906597,1.167789975575877,1.022087610744562,1.010015554180969,0.8722571811081822,1.033606241920332,0.7354003444130482,0.6890165180665827,761.1355311355312,863.4798534798535,809.4871794871796,774.0293040293041,668.0586080586081,0.243835,0.135132,0.974365,-10.026398,-0.418701,-21.503296,315091.575092,138745054.945055,69695677.655678,78.226440,1,1,1,1,1,50.000000
2025-11-11 10:39:27.526,1.341461169684317,0.9348430286943394,1.246532796961231,0.2494119815878146,0.7257152243949895,0.5375458851085927,0.8894145555550078,0.368322731017337,1.090762973702847,0.5882540386785614,0.6579182996613795,0.1121138245128826,1.145220699906597,1.167789975575877,0.3923559882263075,1.010015554180969,0.8722571811081822,1.033606241920332,0.0163569511488682,0.6890165180665827,813.5164835164835,1015.787545787546,789.7435897435897,837.2893772893773,792.967032967033,0.237793,0.024170,0.985840,-8.015137,6.661835,-37.279358,323150.183150,137368644.688645,69663443.223443,80.482491,1,2,1,1,2,50.000000
2025-11-11 10:39:27.787,,,,,,,,,,,,,,,,,,,,,,,,,,,,,,,,,,,,,,,,,,/muse/elements/blink
2025-11-11 10:39:28.391,,,,,,,,,,,,,,,,,,,,,,,,,,,,,,,,,,,,,,,,,,/muse/elements/blink
2025-11-11 10:39:28.530,1.341461169684317,0.9348430286943394,1.106377831013001,0.2494119815878146,0.7257152243949895,0.5375458851085927,0.5229143104322951,0.368322731017337,1.090762973702847,0.5882540386785614,0.6115746442603971,0.1121138245128826,1.145220699906597,1.167789975575877,0.06000392838671832,1.010015554180969,0.8722571811081822,1.033606241920332,-0.06997553128911642,0.6890165180665827,798.6080586080586,792.1611721611722,772.014652014652,805.8608058608058,948.4981684981685,0.371826,-0.025513,0.847229,0.994415,3.581390,-5.824432,336043.956044,136742490.842491,69060659.340659,80.482491,1,2,1,1,2,50.000000
2025-11-11 10:39:29.520,,,,,,,,,,,,,,,,,,,,,,,,,,,,,,,,,,,,,,,,,,/muse/elements/blink
2025-11-11 10:39:29.531,1.341461169684317,0.9348430286943394,0.8118380105269131,0.2494119815878146,0.7257152243949895,0.5375458851085927,0.2625867050935852,0.368322731017337,1.090762973702847,0.5882540386785614,0.4753445373644873,0.1121138245128826,1.145220699906597,1.167789975575877,0.1305730596756137,1.010015554180969,0.8722571811081822,1.033606241920332,0.009574569641334256,0.6890165180665827,780.8791208791209,734.1391941391942,792.5641025641025,797.8021978021978,587.0695970695971,0.413452,0.091858,0.952637,2.332764,-16.202240,9.697418,371501.831502,136869010.989011,68978461.538462,80.482491,1,2,1,1,2,50.000000
2025-11-11 10:39:29.861,,,,,,,,,,,,,,,,,,,,,,,,,,,,,,,,,,,,,,,,,,/muse/elements/blink
2025-11-11 10:39:30.352,,,,,,,,,,,,,,,,,,,,,,,,,,,,,,,,,,,,,,,,,,/muse/elements/blink
2025-11-11 10:39:30.532,1.341461169684317,0.9348430286943394,0.7358658872939453,0.2494119815878146,0.7257152243949895,0.5375458851085927,0.2542504690785381,0.368322731017337,1.090762973702847,0.5882540386785614,0.6723060589919919,0.1121138245128826,1.145220699906597,1.167789975575877,0.2202610446160706,1.010015554180969,0.8722571811081822,1.033606241920332,0.1157931732684638,0.6890165180665827,875.5677655677656,675.7142857142858,829.6336996336996,923.1135531135532,883.6263736263736,0.217285,0.008728,0.936707,9.906769,0.867310,29.466095,439194.139194,137482271.062271,68494139.194139,80.482491,1,2,1,1,2,50.000000
2025-11-11 10:39:30.652,,,,,,,,,,,,,,,,,,,,,,,,,,,,,,,,,,,,,,,,,,/muse/elements/blink
2025-11-11 10:39:31.533,1.341461169684317,0.9348430286943394,1.116083333768937,0.2494119815878146,0.7257152243949895,0.5375458851085927,0.789690866325957,0.368322731017337,1.090762973702847,0.5882540386785614,0.721961176890528,0.1121138245128826,1.145220699906597,1.167789975575877,0.4529163273601942,1.010015554180969,0.8722571811081822,1.033606241920332,0.2447268258896351,0.6890165180665827,832.4542124542124,655.1648351648352,807.4725274725275,812.3076923076924,979.92673992674,0.221313,0.084900,0.925598,4.755249,-12.441406,22.019196,574578.754579,137693406.593407,68962344.322344,80.050713,1,2,1,1,2,50.000000
2025-11-11 10:39:32.526,1.341461169684317,0.9348430286943394,0.8957380256017973,0.2494119815878146,0.7257152243949895,0.5375458851085927,0.4323853403748509,0.368322731017337,1.090762973702847,0.5882540386785614,0.3681985988552078,0.1121138245128826,1.145220699906597,1.167789975575877,0.5022937443831444,1.010015554180969,0.8722571811081822,1.033606241920332,0.05838744288059841,0.6890165180665827,830.4395604395604,1585.128205128205,805.8608058608058,811.9047619047619,512.1245421245421,0.735779,-0.052795,0.725952,13.293762,1.674805,22.594910,313479.853480,138083443.223443,69632820.512821,80.047440,1,2,1,1,2,50.000000
2025-11-11 10:39:32.909,,,,,,,,,,,,,,,,,,,,,,,,,,,,,,,,,,,,,,,,,,/muse/elements/blink
2025-11-11 10:39:33.164,,,,,,,,,,,,,,,,,,,,,,,,,,,,,,,,,,,,,,,,,,/muse/elements/blink
2025-11-11 10:39:33.525,1.341461169684317,0.9348430286943394,0.6462349982604209,0.2494119815878146,0.7257152243949895,0.5375458851085927,0.408105699190327,0.368322731017337,1.090762973702847,0.5882540386785614,0.3894724990038633,0.1121138245128826,1.145220699906597,1.167789975575877,0.6129022208712279,1.010015554180969,0.8722571811081822,1.033606241920332,0.2988501314668356,0.6890165180665827,763.956043956044,0,823.1868131868132,803.040293040293,742.6007326007326,0.157837,0.086243,0.956909,15.880737,31.492310,79.904633,319926.739927,138144688.644689,68920439.560440,82.535385,1,2,4,1,2,50.000000
2025-11-11 10:39:34.526,1.341461169684317,0.9348430286943394,0.9688523530827389,0.2494119815878146,0.7257152243949895,0.5375458851085927,0.7875428355515995,0.368322731017337,1.090762973702847,0.5882540386785614,0.3858292405642726,0.1121138245128826,1.145220699906597,1.167789975575877,0.8475212233236182,1.010015554180969,0.8722571811081822,1.033606241920332,0.6132471207702217,0.6890165180665827,787.7289377289378,929.5604395604396,759.92673992674,816.3369963369963,732.9304029304029,-0.154358,0.017029,0.970337,0.171967,0.396271,6.437531,501245.421245,138180952.380952,68636776.556777,82.535385,1,2,2,1,2,50.000000
2025-11-11 10:39:34.892,,,,,,,,,,,,,,,,,,,,,,,,,,,,,,,,,,,,,,,,,,/muse/elements/blink
2025-11-11 10:39:35.526,1.341461169684317,0.9348430286943394,0.9504127967808605,0.2494119815878146,0.7257152243949895,0.5375458851085927,0.8262131066601224,0.368322731017337,1.090762973702847,0.5882540386785614,0.3853421650930582,0.1121138245128826,1.145220699906597,1.167789975575877,0.8821616847527896,1.010015554180969,0.8722571811081822,1.033606241920332,0.6536896208074069,0.6890165180665827,835.2747252747253,1184.212454212454,806.2637362637363,842.5274725274726,669.6703296703297,0.265808,0.055542,0.968994,11.050720,1.943970,30.684814,325567.765568,138957802.197802,68969597.069597,82.535385,1,2,2,1,2,50.000000
2025-11-11 10:39:35.614,,,,,,,,,,,,,,,,,,,,,,,,,,,,,,,,,,,,,,,,,,/muse/elements/blink
2025-11-11 10:39:36.021,,,,,,,,,,,,,,,,,,,,,,,,,,,,,,,,,,,,,,,,,,/muse/elements/blink
2025-11-11 10:39:36.463,,,,,,,,,,,,,,,,,,,,,,,,,,,,,,,,,,,,,,,,,,/muse/elements/blink
2025-11-11 10:39:36.526,1.341461169684317,0.9348430286943394,0.9504127967808605,0.2494119815878146,0.7257152243949895,0.5375458851085927,0.8262131066601224,0.368322731017337,1.090762973702847,0.5882540386785614,0.3853421650930582,0.1121138245128826,1.145220699906597,1.167789975575877,0.8821616847527896,1.010015554180969,0.8722571811081822,1.033606241920332,0.6536896208074069,0.6890165180665827,802.6373626373627,25.78754578754579,799.8168498168499,816.3369963369963,823.5897435897436,0.484985,0.091309,0.778992,5.876770,2.063599,11.469421,326373.626374,139286593.406593,69360439.560440,82.535385,1,2,2,1,2,50.000000
2025-11-11 10:39:36.825,,,,,,,,,,,,,,,,,,,,,,,,,,,,,,,,,,,,,,,,,,/muse/elements/blink
2025-11-11 10:39:37.251,,,,,,,,,,,,,,,,,,,,,,,,,,,,,,,,,,,,,,,,,,/muse/elements/blink
2025-11-11 10:39:37.526,1.341461169684317,0.9348430286943394,0.9504127967808605,0.2494119815878146,0.7257152243949895,0.5375458851085927,0.8262131066601224,0.368322731017337,1.090762973702847,0.5882540386785614,0.3853421650930582,0.1121138245128826,1.145220699906597,1.167789975575877,0.8821616847527896,1.010015554180969,0.8722571811081822,1.033606241920332,0.6536896208074069,0.6890165180665827,805.8608058608058,0,817.5457875457876,795.7875457875458,751.8681318681319,0.482666,-0.012634,0.877869,4.852448,-24.419250,23.955688,331208.791209,139419560.439560,69734358.974359,82.535385,1,2,4,1,2,50.000000
2025-11-11 10:39:38.464,,,,,,,,,,,,,,,,,,,,,,,,,,,,,,,,,,,,,,,,,,/muse/elements/blink
2025-11-11 10:39:38.526,1.341461169684317,0.9348430286943394,0.818101794485666,0.2494119815878146,0.7257152243949895,0.5375458851085927,0.2560124137977793,0.368322731017337,1.090762973702847,0.5882540386785614,0.1407970961258252,0.1121138245128826,1.145220699906597,1.167789975575877,0.3961033100622152,1.010015554180969,0.8722571811081822,1.033606241920332,0.2147340177445589,0.6890165180665827,778.8644688644689,6.446886446886447,752.2710622710623,781.6849816849817,674.5054945054945,0.552917,0.192749,0.857910,3.730927,-12.209625,7.858124,327985.347985,139795091.575092,70208205.128205,82.535385,1,2,4,1,2,50.000000
2025-11-11 10:39:38.976,,,,,,,,,,,,,,,,,,,,,,,,,,,,,,,,,,,,,,,,,,/muse/elements/blink
2025-11-11 10:39:39.526,1.341461169684317,0.9348430286943394,0.795114736802978,0.2494119815878146,0.7257152243949895,0.5375458851085927,0.09121584368404359,0.368322731017337,1.090762973702847,0.5882540386785614,0.002470473991766832,0.1121138245128826,1.145220699906597,1.167789975575877,0.4411721468898263,1.010015554180969,0.8722571811081822,1.033606241920332,0.3325468044738049,0.6890165180665827,788.1318681318681,1125.384615384615,795.7875457875458,811.9047619047619,736.5567765567765,0.420593,-0.006470,0.924622,-8.187103,2.901001,-1.061707,319120.879121,140029597.069597,70757802.197802,79.100098,1,2,4,1,2,50.000000
2025-11-11 10:39:39.976,,,,,,,,,,,,,,,,,,,,,,,,,,,,,,,,,,,,,,,,,,/muse/elements/blink
2025-11-11 10:39:40.526,1.341461169684317,0.9348430286943394,0.898910985936865,0.2494119815878146,0.7257152243949895,0.5375458851085927,0.4381245528265459,0.368322731017337,1.090762973702847,0.5882540386785614,0.5343085981310089,0.1121138245128826,1.145220699906597,1.167789975575877,0.4788489011621012,1.010015554180969,0.8722571811081822,1.033606241920332,0.2163913058963821,0.6890165180665827,783.6996336996338,1305.897435897436,797.8021978021978,801.8315018315019,1157.619047619048,0.244385,0.076660,0.947571,-10.848846,-0.007477,-25.847321,311868.131868,139677435.897436,70308131.868132,80.121101,1,2,4,1,2,50.000000
2025-11-11 10:39:40.812,,,,,,,,,,,,,,,,,,,,,,,,,,,,,,,,,,,,,,,,,,/muse/elements/blink
2025-11-11 10:39:41.215,,,,,,,,,,,,,,,,,,,,,,,,,,,,,,,,,,,,,,,,,,/muse/elements/blink
2025-11-11 10:39:41.526,1.341461169684317,0.9348430286943394,0.898910985936865,0.2494119815878146,0.7257152243949895,0.5375458851085927,0.4381245528265459,0.368322731017337,1.090762973702847,0.5882540386785614,0.5343085981310089,0.1121138245128826,1.145220699906597,1.167789975575877,0.4788489011621012,1.010015554180969,0.8722571811081822,1.033606241920332,0.2163913058963821,0.6890165180665827,862.6739926739926,227.6556776556777,790.952380952381,850.1831501831502,647.9120879120879,0.173889,0.012695,0.944336,-1.570129,-6.594543,-30.131531,333626.373626,139765274.725275,70400805.860806,79.733131,1,2,4,1,2,50.000000
2025-11-11 10:39:42.025,,,,,,,,,,,,,,,,,,,,,,,,,,,,,,,,,,,,,,,,,,/muse/elements/blink
2025-11-11 10:39:42.526,1.341461169684317,0.9348430286943394,0.7372212014878851,0.2494119815878146,0.7257152243949895,0.5375458851085927,0.6632327940430133,0.368322731017337,1.090762973702847,0.5882540386785614,0.614722951980217,0.1121138245128826,1.145220699906597,1.167789975575877,0.382019998084324,1.010015554180969,0.8722571811081822,1.033606241920332,0.1810375819887092,0.6890165180665827,794.5787545787546,472.2344322344322,798.6080586080586,796.5934065934066,1022.234432234432,0.189941,0.045227,0.993469,-16.359253,7.731018,-21.600494,329597.069597,140249597.069597,70810989.010989,78.239220,1,2,4,1,2,50.000000
2025-11-11 10:39:42.641,,,,,,,,,,,,,,,,,,,,,,,,,,,,,,,,,,,,,,,,,,/muse/elements/blink
2025-11-11 10:39:42.833,,,,,,,,,,,,,,,,,,,,,,,,,,,,,,,,,,,,,,,,,,/muse/elements/blink
2025-11-11 10:39:43.528,1.341461169684317,0.9348430286943394,0.9426729989711511,0.2494119815878146,0.7257152243949895,0.5375458851085927,0.7578275395464512,0.368322731017337,1.090762973702847,0.5882540386785614,0.7149452553931959,0.1121138245128826,1.145220699906597,1.167789975575877,0.4384406220067631,1.010015554180969,0.8722571811081822,1.033606241920332,0.127835898417021,0.6890165180665827,797.3992673992674,95.8974358974359,779.2673992673992,826.8131868131868,1112.490842490843,0.197693,-0.075684,1.106873,-11.372223,-0.971985,-57.743378,319120.879121,140311648.351648,71209084.249084,77.040466,1,2,4,1,2,50.000000
2025-11-11 10:39:43.625,,,,,,,,,,,,,,,,,,,,,,,,,,,,,,,,,,,,,,,,,,/muse/elements/blink
2025-11-11 10:39:44.531,1.341461169684317,0.9348430286943394,1.229251056792346,0.2494119815878146,0.7257152243949895,0.5375458851085927,0.8626498790273097,0.368322731017337,1.090762973702847,0.5882540386785614,0.7505130161652087,0.1121138245128826,1.145220699906597,1.167789975575877,0.2866526836083679,1.010015554180969,0.8722571811081822,1.033606241920332,-0.03563561233574676,0.6890165180665827,809.8901098901099,0,809.4871794871796,805.0549450549451,644.6886446886447,0.295593,-0.024292,0.985657,-18.108826,1.786957,-30.221252,315091.575092,140388205.128205,71660366.300366,77.040466,1,2,4,1,2,50.000000
2025-11-11 10:39:44.840,,,,,,,,,,,,,,,,,,,,,,,,,,,,,,,,,,,,,,,,,,/muse/elements/blink
2025-11-11 10:39:45.268,,,,,,,,,,,,,,,,,,,,,,,,,,,,,,,,,,,,,,,,,,/muse/elements/blink
2025-11-11 10:39:45.537,1.341461169684317,0.9348430286943394,0.8704999688016503,0.2494119815878146,0.7257152243949895,0.5375458851085927,0.6293407021859382,0.368322731017337,1.090762973702847,0.5882540386785614,0.6538575367207609,0.1121138245128826,1.145220699906597,1.167789975575877,0.2690694430563594,1.010015554180969,0.8722571811081822,1.033606241920332,-0.04734020053722891,0.6890165180665827,780.8791208791209,508.4981684981685,828.021978021978,807.0695970695971,722.8571428571429,0.246826,0.123840,0.921875,-6.287994,-9.832001,-39.813995,316703.296703,140586446.886447,72108424.908425,77.040466,1,2,4,1,2,50.000000
2025-11-11 10:39:46.291,,,,,,,,,,,,,,,,,,,,,,,,,,,,,,,,,,,,,,,,,,/muse/elements/blink
2025-11-11 10:39:46.526,1.341461169684317,0.9348430286943394,1.087225376930286,0.2494119815878146,0.7257152243949895,0.5375458851085927,0.7838390008410079,0.368322731017337,1.090762973702847,0.5882540386785614,0.6431150219230315,0.1121138245128826,1.145220699906597,1.167789975575877,0.3075404927872963,1.010015554180969,0.8722571811081822,1.033606241920332,0.08173146185953901,0.6890165180665827,787.7289377289378,959.7802197802198,805.8608058608058,819.5604395604396,758.3150183150184,0.319885,-0.016357,0.949646,-4.777679,-4.388885,-10.534821,324761.904762,140783076.923077,72485567.765568,74.515160,1,2,4,1,2,50.000000
2025-11-11 10:39:47.101,,,,,,,,,,,,,,,,,,,,,,,,,,,,,,,,,,,,,,,,,,/muse/elements/blink
2025-11-11 10:39:47.535,1.341461169684317,0.9348430286943394,1.116748992670128,0.2494119815878146,0.7257152243949895,0.5375458851085927,0.6332424882365406,0.368322731017337,1.090762973702847,0.5882540386785614,0.5230455235397822,0.1121138245128826,1.145220699906597,1.167789975575877,0.3335779005138437,1.010015554180969,0.8722571811081822,1.033606241920332,0.03829669719576251,0.6890165180665827,808.2783882783883,1647.179487179487,801.8315018315019,798.6080586080586,612.0512820512821,0.290710,0.055359,0.920837,-9.413300,2.048645,-19.290161,336849.816850,140693626.373626,72601611.721612,73.532555,1,2,4,1,2,50.000000
2025-11-11 10:39:47.911,,,,,,,,,,,,,,,,,,,,,,,,,,,,,,,,,,,,,,,,,,/muse/elements/blink
2025-11-11 10:39:48.525,1.341461169684317,0.9348430286943394,1.015930736432242,0.2494119815878146,0.7257152243949895,0.5375458851085927,0.4334237937955103,0.368322731017337,1.090762973702847,0.5882540386785614,0.386668038369982,0.1121138245128826,1.145220699906597,1.167789975575877,0.4024987909317469,1.010015554180969,0.8722571811081822,1.033606241920332,0.08760907081681919,0.6890165180665827,803.4432234432235,875.1648351648352,799.0109890109891,787.3260073260074,761.1355311355312,0.254700,-0.085022,0.935425,6.654358,-0.687866,6.863708,353772.893773,140534871.794872,72546813.186813,73.908379,1,2,4,1,2,50.000000
2025-11-11 10:39:48.933,,,,,,,,,,,,,,,,,,,,,,,,,,,,,,,,,,,,,,,,,,/muse/elements/blink
2025-11-11 10:39:49.340,,,,,,,,,,,,,,,,,,,,,,,,,,,,,,,,,,,,,,,,,,/muse/elements/blink
2025-11-11 10:39:49.526,1.341461169684317,0.9348430286943394,0.9453187502111193,0.2494119815878146,0.7257152243949895,0.5375458851085927,0.5349182889709367,0.368322731017337,1.090762973702847,0.5882540386785614,0.4159811249003798,0.1121138245128826,1.145220699906597,1.167789975575877,0.4581218327667917,1.010015554180969,0.8722571811081822,1.033606241920332,0.03408910463636529,0.6890165180665827,828.021978021978,869.5238095238095,803.8461538461539,831.2454212454213,757.9120879120879,0.196655,0.106873,0.947144,-3.200073,2.482300,17.630310,427912.087912,140231062.271062,72091501.831502,75.199371,1,2,4,1,2,50.000000
2025-11-11 10:39:50.042,,,,,,,,,,,,,,,,,,,,,,,,,,,,,,,,,,,,,,,,,,/muse/elements/blink
2025-11-11 10:39:50.526,1.341461169684317,0.9348430286943394,1.126210448721885,0.2494119815878146,0.7257152243949895,0.5375458851085927,0.5871859670472517,0.368322731017337,1.090762973702847,0.5882540386785614,0.5185922430169959,0.1121138245128826,1.145220699906597,1.167789975575877,0.4783620651102056,1.010015554180969,0.8722571811081822,1.033606241920332,0.2319588956197188,0.6890165180665827,815.934065934066,1650,796.5934065934066,812.3076923076924,646.3003663003664,0.017761,0.034851,0.998047,13.525543,17.204132,9.630127,606813.186813,140123076.923077,71858608.058608,75.520943,1,2,4,1,2,50.000000
2025-11-11 10:39:50.937,,,,,,,,,,,,,,,,,,,,,,,,,,,,,,,,,,,,,,,,,,/muse/elements/blink
2025-11-11 10:39:51.526,1.341461169684317,0.9348430286943394,1.027662991300861,0.2494119815878146,0.7257152243949895,0.5375458851085927,0.5149135656832178,0.368322731017337,1.090762973702847,0.5882540386785614,0.4633589347296609,0.1121138245128826,1.145220699906597,1.167789975575877,0.4868821388367416,1.010015554180969,0.8722571811081822,1.033606241920332,0.2783457387591923,0.6890165180665827,797.3992673992674,0,801.8315018315019,793.3699633699634,1012.161172161172,0.173523,0.098511,1.002319,0.418701,-1.592560,30.983887,736556.776557,140002197.802198,71652307.692308,75.520943,1,2,4,1,2,50.000000
2025-11-11 10:39:52.381,,,,,,,,,,,,,,,,,,,,,,,,,,,,,,,,,,,,,,,,,,/muse/elements/blink
2025-11-11 10:39:52.526,1.341461169684317,0.9348430286943394,1.205899218517272,0.2494119815878146,0.7257152243949895,0.5375458851085927,0.7133985043280072,0.368322731017337,1.090762973702847,0.5882540386785614,0.2026719354243361,0.1121138245128826,1.145220699906597,1.167789975575877,0.4289305580046619,1.010015554180969,0.8722571811081822,1.033606241920332,0.3174578440371782,0.6890165180665827,788.1318681318681,0,803.4432234432235,780.4761904761905,602.3809523809524,0.324585,0.076782,0.926453,7.110443,2.220612,25.839844,321538.461538,140341465.201465,71922271.062271,75.823891,1,2,4,1,2,50.000000
2025-11-11 10:39:53.092,,,,,,,,,,,,,,,,,,,,,,,,,,,,,,,,,,,,,,,,,,/muse/elements/blink
2025-11-11 10:39:53.532,1.341461169684317,0.9348430286943394,1.002120436720507,0.2494119815878146,0.7257152243949895,0.5375458851085927,0.5272622439118108,0.368322731017337,1.090762973702847,0.5882540386785614,0.3515457115848287,0.1121138245128826,1.145220699906597,1.167789975575877,0.4668152009623384,1.010015554180969,0.8722571811081822,1.033606241920332,0.2247242476479287,0.6890165180665827,806.6666666666667,1568.205128205128,788.1318681318681,792.1611721611722,573.3699633699634,0.202759,0.017883,0.932068,1.084137,1.779480,33.720398,321538.461538,140608205.128205,71977069.597070,76.543762,1,2,4,1,2,50.000000
2025-11-11 10:39:53.880,,,,,,,,,,,,,,,,,,,,,,,,,,,,,,,,,,,,,,,,,,/muse/elements/blink
2025-11-11 10:39:54.526,1.341461169684317,0.9348430286943394,1.21418993774879,0.2494119815878146,0.7257152243949895,0.5375458851085927,0.7717281080711583,0.368322731017337,1.090762973702847,0.5882540386785614,0.1526392980733084,0.1121138245128826,1.145220699906597,1.167789975575877,0.3001710059690995,1.010015554180969,0.8722571811081822,1.033606241920332,0.2014350904855055,0.6890165180665827,803.4432234432235,0,790.5494505494506,811.9047619047619,990.8058608058608,0.404053,0.122498,0.976807,6.273041,3.312225,28.015594,325567.765568,140671062.271062,72015750.915751,75.478897,1,2,4,1,2,50.000000
2025-11-11 10:39:54.591,,,,,,,,,,,,,,,,,,,,,,,,,,,,,,,,,,,,,,,,,,/muse/elements/blink
2025-11-11 10:39:54.933,,,,,,,,,,,,,,,,,,,,,,,,,,,,,,,,,,,,,,,,,,/muse/elements/blink
2025-11-11 10:39:55.526,1.341461169684317,0.9348430286943394,1.316871821341116,0.2494119815878146,0.7257152243949895,0.5375458851085927,0.7931814206624588,0.368322731017337,1.090762973702847,0.5882540386785614,0.4826068162691483,0.1121138245128826,1.145220699906597,1.167789975575877,0.4891494993341298,1.010015554180969,0.8722571811081822,1.033606241920332,0.3572946550938503,0.6890165180665827,794.981684981685,0,793.3699633699634,782.893772893773,692.6373626373627,0.268372,-0.009033,0.976074,-6.856232,-16.688232,39.103699,334432.234432,140582417.582418,71836849.816850,80.854576,1,2,4,1,2,50.000000
2025-11-11 10:39:56.042,,,,,,,,,,,,,,,,,,,,,,,,,,,,,,,,,,,,,,,,,,/muse/elements/blink
2025-11-11 10:39:56.526,1.341461169684317,0.9348430286943394,1.051239294300796,0.2494119815878146,0.7257152243949895,0.5375458851085927,0.4850208331098757,0.368322731017337,1.090762973702847,0.5882540386785614,0.327634446720982,0.1121138245128826,1.145220699906597,1.167789975575877,0.4280060683131126,1.010015554180969,0.8722571811081822,1.033606241920332,0.2944717894036344,0.6890165180665827,812.7106227106227,1650,789.3406593406594,790.1465201465202,605.2014652014652,0.273621,0.069275,0.919922,0.852356,3.132782,7.813263,336043.956044,140667032.967033,71942417.582418,81.507210,1,2,4,1,2,50.000000
2025-11-11 10:39:56.940,,,,,,,,,,,,,,,,,,,,,,,,,,,,,,,,,,,,,,,,,,/muse/elements/blink
2025-11-11 10:39:57.175,,,,,,,,,,,,,,,,,,,,,,,,,,,,,,,,,,,,,,,,,,/muse/elements/blink
2025-11-11 10:39:57.455,,,,,,,,,,,,,,,,,,,,,,,,,,,,,,,,,,,,,,,,,,/muse/elements/blink
2025-11-11 10:39:57.526,1.341461169684317,0.9348430286943394,0.7067891843765078,0.2494119815878146,0.7257152243949895,0.5375458851085927,0.1560777081622638,0.368322731017337,1.090762973702847,0.5882540386785614,0.1715937365832836,0.1121138245128826,1.145220699906597,1.167789975575877,0.3400385853683591,1.010015554180969,0.8722571811081822,1.033606241920332,0.1914337230025573,0.6890165180665827,821.1721611721612,267.1428571428572,781.6849816849817,807.8754578754579,895.7142857142858,0.242310,-0.016724,0.930603,2.788849,-12.007751,9.742279,340073.260073,140361611.721612,71304175.824176,81.507210,1,2,4,1,2,50.000000
2025-11-11 10:39:58.528,1.341461169684317,0.9348430286943394,0.445809188847598,0.2494119815878146,0.7257152243949895,0.5375458851085927,-0.1169396416768621,0.368322731017337,1.090762973702847,0.5882540386785614,-0.127794007128957,0.1121138245128826,1.145220699906597,1.167789975575877,0.1997435693042467,1.010015554180969,0.8722571811081822,1.033606241920332,0.05698467563494046,0.6890165180665827,834.0659340659341,433.5531135531136,790.952380952381,804.2490842490843,964.6153846153846,0.264771,0.074036,0.944214,-4.553375,-2.691650,-1.547699,340073.260073,140552600.732601,71476630.036630,81.507210,1,2,4,1,2,50.000000
2025-11-11 10:39:58.584,,,,,,,,,,,,,,,,,,,,,,,,,,,,,,,,,,,,,,,,,,/muse/elements/blink
2025-11-11 10:39:58.861,,,,,,,,,,,,,,,,,,,,,,,,,,,,,,,,,,,,,,,,,,/muse/elements/blink
2025-11-11 10:39:59.184,,,,,,,,,,,,,,,,,,,,,,,,,,,,,,,,,,,,,,,,,,/muse/elements/blink
2025-11-11 10:39:59.461,,,,,,,,,,,,,,,,,,,,,,,,,,,,,,,,,,,,,,,,,,/muse/elements/blink
2025-11-11 10:39:59.534,1.534755356908362,0.9348430286943394,1.240927412840879,0.2494119815878146,1.427909108275096,0.5375458851085927,0.9133880610513303,0.368322731017337,1.557014620927385,0.5882540386785614,1.082820145104489,0.1121138245128826,1.255287531709042,1.167789975575877,0.5708953483348186,1.010015554180969,0.5857248225500571,1.033606241920332,0.1109930281719811,0.6890165180665827,820.3663003663004,1625.018315018315,806.6666666666667,832.4542124542124,545.1648351648352,0.218018,-0.076233,0.952942,-4.411316,6.130981,-26.423035,387619.047619,140416410.256410,71298534.798535,81.507210,1,1,4,1,1,50.000000
2025-11-11 10:39:59.971,,,,,,,,,,,,,,,,,,,,,,,,,,,,,,,,,,,,,,,,,,/muse/elements/blink
2025-11-11 10:40:00.525,1.73655187419707,0.9348430286943394,1.342193189082725,0.2494119815878146,1.551915036175865,0.5375458851085927,1.022804906765915,0.368322731017337,1.557014620927385,0.5882540386785614,1.072019409099749,0.1121138245128826,1.298782530403326,1.167789975575877,0.5291648077711236,1.010015554180969,0.6504563707447034,1.033606241920332,0.134667956751792,0.6890165180665827,774.4322344322345,1226.117216117216,777.2527472527473,783.2967032967033,906.996336996337,-0.209045,0.114014,0.975830,-2.646790,7.850647,-11.125488,578608.058608,140028791.208791,70646593.406593,81.507210,1,1,2,1,1,50.000000
2025-11-11 10:40:01.526,0.9532736725715086,0.9348430286943394,1.217182887245788,0.7919087041194437,0.4383309647296606,0.5375458851085927,0.8891100115159851,0.2241670767252586,1.251811770051503,0.5882540386785614,0.8846430431038379,0.7686815119836758,1.121387132384811,1.167789975575877,0.5560605137256538,0.8257297144372541,1.005329335123148,1.033606241920332,0.2046391478073008,0.6791246871974453,772.4175824175825,586.6666666666666,814.3223443223443,815.934065934066,832.4542124542124,-0.072327,0.056091,1.060486,-1.861725,-0.732727,-41.414032,521391.941392,140078754.578755,70416117.216117,79.495560,1,1,2,1,1,50.000000
2025-11-11 10:40:02.526,0.9959425489116601,0.9348430286943394,0.7658799816967745,0.739988600605358,0.7483385704962494,0.5375458851085927,0.03114355208418624,0.04549967869401154,1.526496872649006,0.5882540386785614,0.564139039109918,0.6847899560131115,1.194000040552044,1.167789975575877,0.7018489146074401,0.8612288457640738,0.9074412027755768,1.033606241920332,0.5169386661617377,0.6475023794260018,771.2087912087912,793.3699633699634,781.6849816849817,802.6373626373627,630.5860805860806,0.029297,-0.001892,0.981018,-4.807587,-0.949554,-1.816864,330402.930403,140217362.637363,70673992.673993,76.580193,1,1,2,1,1,50.000000
2025-11-11 10:40:03.130,,,,,,,,,,,,,,,,,,,,,,,,,,,,,,,,,,,,,,,,,,/muse/elements/blink
2025-11-11 10:40:03.526,1.022615346277936,0.9348430286943394,0.9207936181643936,0.6552628670780453,0.9001931649247696,0.5375458851085927,0.2486745590524322,-0.1515411525641233,1.409063419386783,0.5882540386785614,0.5219796359397927,0.4181150337864833,1.286235297232853,1.167789975575877,0.6704020874290617,0.8635395769632322,0.8196108264491906,1.033606241920332,0.4303721707167369,0.6044616136693008,782.0879120879121,0,819.1575091575091,797.8021978021978,977.9120879120879,0.313110,0.141052,0.975403,-0.904694,-22.393036,-51.380615,314285.714286,139972380.952381,71395238.095238,76.580193,1,1,2,1,1,50.000000
2025-11-11 10:40:04.348,,,,,,,,,,,,,,,,,,,,,,,,,,,,,,,,,,,,,,,,,,/muse/elements/blink
