TimeStamp,Delta_TP9,Delta_AF7,Delta_AF8,Delta_TP10,Theta_TP9,Theta_AF7,Theta_AF8,Theta_TP10,Alpha_TP9,Alpha_AF7,Alpha_AF8,Alpha_TP10,Beta_TP9,Beta_AF7,Beta_AF8,Beta_TP10,Gamma_TP9,Gamma_AF7,Gamma_AF8,Gamma_TP10,RAW_TP9,RAW_AF7,RAW_AF8,RAW_TP10,AUX_RIGHT,Accelerometer_X,Accelerometer_Y,Accelerometer_Z,Gyro_X,Gyro_Y,Gyro_Z,PPG_Ambient,PPG_IR,PPG_Red,Heart_Rate,HeadBandOn,HSI_TP9,HSI_AF7,HSI_AF8,HSI_TP10,Battery,Elements
2025-11-11 12:28:06.620,,,,,,,,,,,,,,,,,,,,,,,,,,,,,,,,,,,,,,,,,,/muse/event/connected Muse-135C
2025-11-11 12:28:06.676,,,,,,,,,,,,,,,,,,,,,,,,,,,,,,,,,,,,,,,,,,/muse/elements/blink
2025-11-11 12:28:06.680,,,,,,,,,,,,,,,,,,,,,,,,,,,,,,,,,,,,,,,,,,/muse/elements/blink
2025-11-11 12:28:06.965,,,,,,,,,,,,,,,,,,,,,,,,,,,,,,,,,,,,,,,,,,/muse/elements/blink
2025-11-11 12:28:07.622,1.636164365941965,1.318646617747411,0.6112894660010192,0.6797081511657244,1.492696841339202,1.042223443129305,0.7837098096063716,0.2570259798887443,1.313345785282211,0.7311416295521005,0.9338904025546132,0.9930539725175822,1.081453216347817,0.04382846927964698,1.028639289604531,1.186365102796419,0.9593191107331456,-0.3795280974086492,0.6941265085047114,0.9612866612199636,808.2783882783883,821.1721611721612,790.952380952381,796.5934065934066,553.6263736263736,0.072205,0.016724,0.983643,-11.013336,-20.882721,-8.037567,332014.652015,154657582.417582,106768498.168498,93.080299,1,1,1,1,1,40.000000
2025-11-11 12:28:07.995,,,,,,,,,,,,,,,,,,,,,,,,,,,,,,,,,,,,,,,,,,/muse/elements/blink
2025-11-11 12:28:08.621,1.636164365941965,1.302973381865322,0.6112894660010192,0.6797081511657244,1.492696841339202,1.077566395182931,0.7837098096063716,0.2570259798887443,1.313345785282211,0.7869706864177195,0.9338904025546132,0.9930539725175822,1.081453216347817,0.1867190848902889,1.028639289604531,1.186365102796419,0.9593191107331456,-0.1415576408844198,0.6941265085047114,0.9612866612199636,808.2783882783883,825.6043956043957,759.92673992674,818.7545787545788,751.0622710622711,0.081116,0.058960,0.952820,5.809479,-3.140259,34.812012,366666.666667,154904981.684982,106009377.289377,89.160324,1,1,1,1,1,40.000000
2025-11-11 12:28:08.869,,,,,,,,,,,,,,,,,,,,,,,,,,,,,,,,,,,,,,,,,,/muse/elements/blink
2025-11-11 12:28:09.626,1.636164365941965,0.9372907235718875,0.6112894660010192,0.6797081511657244,1.492696841339202,0.7672567516071285,0.7837098096063716,0.2570259798887443,1.313345785282211,0.79601595120845,0.9338904025546132,0.9930539725175822,1.081453216347817,0.4038353154682415,1.028639289604531,1.186365102796419,0.9593191107331456,0.1325387832504223,0.6941265085047114,0.9612866612199636,820.3663003663004,811.9047619047619,816.7399267399268,824.3956043956044,686.5934065934066,-0.026672,0.250549,0.992859,9.174042,15.133057,46.229095,522197.802198,155277289.377289,106295457.875458,83.284622,1,2,1,1,2,40.000000
2025-11-11 12:28:10.410,,,,,,,,,,,,,,,,,,,,,,,,,,,,,,,,,,,,,,,,,,/muse/elements/blink
2025-11-11 12:28:10.621,1.636164365941965,0.9726758805651839,0.6112894660010192,0.6797081511657244,1.492696841339202,0.5235562057121972,0.7837098096063716,0.2570259798887443,1.313345785282211,0.7165812952227811,0.9338904025546132,0.9930539725175822,1.081453216347817,0.3695899814732501,1.028639289604531,1.186365102796419,0.9593191107331456,0.01354344943927632,0.6941265085047114,0.9612866612199636,784.5054945054945,730.5128205128206,703.1135531135532,814.3223443223443,1389.70695970696,0.299805,0.202820,0.940491,17.794800,-49.862823,72.031555,458534.798535,155367545.787546,106153626.373626,93.903618,1,2,1,1,2,40.000000
2025-11-11 12:28:10.794,,,,,,,,,,,,,,,,,,,,,,,,,,,,,,,,,,,,,,,,,,/muse/elements/blink
2025-11-11 12:28:11.621,1.636164365941965,0.9461760272637818,0.6112894660010192,0.6797081511657244,1.492696841339202,0.4893645889093514,0.7837098096063716,0.2570259798887443,1.313345785282211,0.6788649186236915,0.9338904025546132,0.9930539725175822,1.081453216347817,0.5034524267695819,1.028639289604531,1.186365102796419,0.9593191107331456,0.02571352777781836,0.6941265085047114,0.9612866612199636,767.985347985348,815.5311355311355,780.0732600732601,780.4761904761905,662.014652014652,0.175964,0.101685,1.005493,6.101074,24.404297,20.792999,321538.461538,155349816.849817,106671794.871795,111.517548,1,2,1,1,2,40.000000
2025-11-11 12:28:11.729,,,,,,,,,,,,,,,,,,,,,,,,,,,,,,,,,,,,,,,,,,/muse/elements/blink
2025-11-11 12:28:12.112,,,,,,,,,,,,,,,,,,,,,,,,,,,,,,,,,,,,,,,,,,/muse/elements/blink
2025-11-11 12:28:12.540,,,,,,,,,,,,,,,,,,,,,,,,,,,,,,,,,,,,,,,,,,/muse/elements/blink
2025-11-11 12:28:12.621,1.636164365941965,1.318271696301191,0.6112894660010192,0.6797081511657244,1.492696841339202,1.442048250927884,0.7837098096063716,0.2570259798887443,1.313345785282211,0.9550464403454076,0.9338904025546132,0.9930539725175822,1.081453216347817,0.7907861634151314,1.028639289604531,1.186365102796419,0.9593191107331456,0.2082754411572589,0.6941265085047114,0.9612866612199636,838.0952380952381,824.7985347985348,1008.534798534799,834.8717948717949,520.1831501831502,-0.081665,0.135559,0.961670,-17.480774,28.434296,64.539795,326373.626374,154354578.754579,104651501.831502,101.470337,1,2,1,1,2,40.000000
2025-11-11 12:28:13.221,,,,,,,,,,,,,,,,,,,,,,,,,,,,,,,,,,,,,,,,,,/muse/elements/blink
2025-11-11 12:28:13.622,1.636164365941965,1.380505668192753,0.6112894660010192,0.6797081511657244,1.492696841339202,1.57030122498786,0.7837098096063716,0.2570259798887443,1.313345785282211,0.9537518660350022,0.9338904025546132,0.9930539725175822,1.081453216347817,0.8961565667194294,1.028639289604531,1.186365102796419,0.9593191107331456,0.2741266766096395,0.6941265085047114,0.9612866612199636,803.8461538461539,826.007326007326,525.8241758241759,810.2930402930403,751.0622710622711,0.223572,0.171448,0.888184,8.852539,-23.821106,26.819305,332820.512821,155330476.190476,106096410.256410,88.023323,1,2,1,1,2,40.000000
2025-11-11 12:28:14.264,,,,,,,,,,,,,,,,,,,,,,,,,,,,,,,,,,,,,,,,,,/muse/elements/blink
2025-11-11 12:28:14.622,1.636164365941965,0.9194281087198557,0.6112894660010192,0.6797081511657244,1.492696841339202,0.8087705815845168,0.7837098096063716,0.2570259798887443,1.313345785282211,0.4086819113027118,0.9338904025546132,0.9930539725175822,1.081453216347817,0.2314721181114669,1.028639289604531,1.186365102796419,0.9593191107331456,-0.1763049350903143,0.6941265085047114,0.9612866612199636,828.021978021978,798.6080586080586,786.1172161172161,823.992673992674,622.9304029304029,0.376160,0.139221,0.899719,1.084137,-3.327179,-9.951630,327985.347985,155195897.435897,106372820.512821,79.320259,1,2,1,1,2,40.000000
2025-11-11 12:28:14.882,,,,,,,,,,,,,,,,,,,,,,,,,,,,,,,,,,,,,,,,,,/muse/elements/blink
2025-11-11 12:28:15.160,,,,,,,,,,,,,,,,,,,,,,,,,,,,,,,,,,,,,,,,,,/muse/elements/blink
2025-11-11 12:28:15.622,1.636164365941965,0.7720047141015481,0.6112894660010192,0.6797081511657244,1.492696841339202,0.4063231408394504,0.7837098096063716,0.2570259798887443,1.313345785282211,0.1930756570241735,0.9338904025546132,0.9930539725175822,1.081453216347817,0.04781541159837577,1.028639289604531,1.186365102796419,0.9593191107331456,-0.3167697451043395,0.6941265085047114,0.9612866612199636,822.7838827838829,824.7985347985348,1205.164835164835,797.3992673992674,599.5604395604396,0.406860,0.020752,0.915039,-4.590759,-12.703094,4.755249,320732.600733,155139487.179487,106427619.047619,75.506271,1,2,1,1,2,40.000000
2025-11-11 12:28:15.904,,,,,,,,,,,,,,,,,,,,,,,,,,,,,,,,,,,,,,,,,,/muse/elements/blink
2025-11-11 12:28:16.622,1.636164365941965,0.7762880809891665,0.6112894660010192,0.6797081511657244,1.492696841339202,0.474135956063799,0.7837098096063716,0.2570259798887443,1.313345785282211,0.3944684982711578,0.9338904025546132,0.9930539725175822,1.081453216347817,0.1666829586820625,1.028639289604531,1.186365102796419,0.9593191107331456,-0.3934986432706965,0.6941265085047114,0.9612866612199636,797.8021978021978,806.6666666666667,877.1794871794872,813.5164835164835,709.9633699633699,0.315308,0.223145,0.909607,-0.844879,-3.925323,-26.041718,318315.018315,155025860.805861,106517069.597070,75.506271,1,2,1,1,2,40.000000
2025-11-11 12:28:17.205,,,,,,,,,,,,,,,,,,,,,,,,,,,,,,,,,,,,,,,,,,/muse/elements/blink
2025-11-11 12:28:17.621,1.636164365941965,0.8575715764544354,0.6112894660010192,0.6797081511657244,1.492696841339202,0.5677809331409006,0.7837098096063716,0.2570259798887443,1.313345785282211,0.4486059736815726,0.9338904025546132,0.9930539725175822,1.081453216347817,0.08718766294268016,1.028639289604531,1.186365102796419,0.9593191107331456,-0.3336212450803335,0.6941265085047114,0.9612866612199636,824.3956043956044,809.0842490842491,809.4871794871796,804.2490842490843,688.2051282051282,0.307373,0.121643,0.975525,-1.831818,-11.297455,-21.002350,328791.208791,155166886.446886,106454212.454212,76.841103,1,2,1,1,2,40.000000
2025-11-11 12:28:18.626,0.815835978164045,1.047360204738198,0.6112894660010192,0.6797081511657244,0.9207180794671357,0.6331853601414891,0.7837098096063716,0.2570259798887443,0.9229635896228838,0.4053449166806506,0.9338904025546132,0.9930539725175822,1.084461583018795,0.1115189458682979,1.028639289604531,1.186365102796419,0.4145196753190616,-0.2089498029286883,0.6941265085047114,0.9612866612199636,688.2051282051282,842.1245421245421,807.0695970695971,676.9230769230769,574.5787545787546,0.128845,0.200073,0.936523,17.099457,0.515900,-27.312775,327985.347985,155862344.322344,106911941.391941,78.095192,1,1,1,1,1,40.000000
2025-11-11 12:28:18.975,,,,,,,,,,,,,,,,,,,,,,,,,,,,,,,,,,,,,,,,,,/muse/elements/blink
2025-11-11 12:28:19.550,,,,,,,,,,,,,,,,,,,,,,,,,,,,,,,,,,,,,,,,,,/muse/elements/blink
2025-11-11 12:28:19.625,0.815835978164045,0.7166574708501879,0.6112894660010192,0.6797081511657244,0.9207180794671357,0.2425825231764941,0.7837098096063716,0.2570259798887443,0.9229635896228838,0.3600248987815907,0.9338904025546132,0.9930539725175822,1.084461583018795,0.2671663198337354,1.028639289604531,1.186365102796419,0.4145196753190616,-0.007515928262888576,0.6941265085047114,0.9612866612199636,769.1941391941392,777.2527472527473,23.77289377289377,786.9230769230769,690.2197802197802,0.074890,0.196777,0.998596,-7.237549,-4.366455,-19.791107,318315.018315,155163663.003663,105264761.904762,78.795822,1,1,1,2,1,40.000000
2025-11-11 12:28:20.622,0.815835978164045,0.760674440366087,0.6112894660010192,0.6797081511657244,0.9207180794671357,0.3869306788921398,0.7837098096063716,0.2570259798887443,0.9229635896228838,0.3569203604609682,0.9338904025546132,0.9930539725175822,1.084461583018795,0.3923251836491501,1.028639289604531,1.186365102796419,0.4145196753190616,0.09501012187268219,0.6941265085047114,0.9612866612199636,810.6959706959707,817.948717948718,870.7326007326008,818.3516483516484,674.1025641025641,0.048218,0.226929,0.962158,-11.110535,-8.927307,-35.641937,314285.714286,155612527.472527,105739413.919414,77.256302,1,1,1,1,1,40.000000
2025-11-11 12:28:20.973,,,,,,,,,,,,,,,,,,,,,,,,,,,,,,,,,,,,,,,,,,/muse/elements/blink
2025-11-11 12:28:21.622,0.815835978164045,0.760674440366087,0.6112894660010192,0.6797081511657244,0.9207180794671357,0.3869306788921398,0.7837098096063716,0.2570259798887443,0.9229635896228838,0.3569203604609682,0.9338904025546132,0.9930539725175822,1.084461583018795,0.3923251836491501,1.028639289604531,1.186365102796419,0.4145196753190616,0.09501012187268219,0.6941265085047114,0.9612866612199636,784.5054945054945,811.0989010989011,813.1135531135532,818.3516483516484,673.2967032967033,0.102234,0.169067,0.988220,-2.340240,-3.925323,-25.682831,318315.018315,156374871.794872,106886959.706960,76.902809,1,2,1,2,2,40.000000
2025-11-11 12:28:21.671,,,,,,,,,,,,,,,,,,,,,,,,,,,,,,,,,,,,,,,,,,/muse/elements/blink
2025-11-11 12:28:21.861,,,,,,,,,,,,,,,,,,,,,,,,,,,,,,,,,,,,,,,,,,/muse/elements/blink
2025-11-11 12:28:22.458,,,,,,,,,,,,,,,,,,,,,,,,,,,,,,,,,,,,,,,,,,/muse/elements/blink
2025-11-11 12:28:22.621,0.815835978164045,0.760674440366087,0.6112894660010192,0.6797081511657244,0.9207180794671357,0.3869306788921398,0.7837098096063716,0.2570259798887443,0.9229635896228838,0.3569203604609682,0.9338904025546132,0.9930539725175822,1.084461583018795,0.3923251836491501,1.028639289604531,1.186365102796419,0.4145196753190616,0.09501012187268219,0.6941265085047114,0.9612866612199636,817.1428571428571,806.6666666666667,776.4468864468864,793.7728937728938,847.3626373626374,0.125549,0.063232,0.929810,-9.293671,-5.054321,-16.105042,327179.487179,156150036.630037,106605714.285714,76.902809,1,2,1,2,2,40.000000
2025-11-11 12:28:23.621,0.815835978164045,1.034940418391221,0.6112894660010192,0.6797081511657244,0.9207180794671357,0.8819123748654277,0.7837098096063716,0.2570259798887443,0.9229635896228838,0.9211541490906066,0.9338904025546132,0.9930539725175822,1.084461583018795,0.3449882258167439,1.028639289604531,1.186365102796419,0.4145196753190616,0.02616398721089749,0.6941265085047114,0.9612866612199636,678.9377289377289,774.4322344322345,912.6373626373627,692.2344322344322,584.6520146520147,0.170532,0.157776,0.894165,-0.269165,2.011261,2.033691,337655.677656,155623809.523810,106449377.289377,76.902809,1,2,1,1,2,40.000000
2025-11-11 12:28:23.818,,,,,,,,,,,,,,,,,,,,,,,,,,,,,,,,,,,,,,,,,,/muse/elements/blink
2025-11-11 12:28:24.201,,,,,,,,,,,,,,,,,,,,,,,,,,,,,,,,,,,,,,,,,,/muse/elements/blink
2025-11-11 12:28:24.621,0.815835978164045,1.022154888293753,0.6112894660010192,0.6797081511657244,0.9207180794671357,0.7941361547990802,0.7837098096063716,0.2570259798887443,0.9229635896228838,0.9259779230903122,0.9338904025546132,0.9930539725175822,1.084461583018795,0.275171942350616,1.028639289604531,1.186365102796419,0.4145196753190616,-0.261153550471713,0.6941265085047114,0.9612866612199636,845.7509157509157,801.025641025641,811.9047619047619,821.978021978022,639.8534798534798,0.153076,0.108093,1.003662,9.929199,8.889923,4.209442,365860.805861,154845347.985348,105898168.498168,77.132820,1,2,1,1,2,40.000000
2025-11-11 12:28:25.221,,,,,,,,,,,,,,,,,,,,,,,,,,,,,,,,,,,,,,,,,,/muse/elements/blink
2025-11-11 12:28:25.516,,,,,,,,,,,,,,,,,,,,,,,,,,,,,,,,,,,,,,,,,,/muse/elements/blink
2025-11-11 12:28:25.622,0.815835978164045,1.101497375833851,0.6112894660010192,0.6797081511657244,0.9207180794671357,0.7312516817850486,0.7837098096063716,0.2570259798887443,0.9229635896228838,0.8694296061813208,0.9338904025546132,0.9930539725175822,1.084461583018795,0.1088842593802434,1.028639289604531,1.186365102796419,0.4145196753190616,-0.2195032891194435,0.6941265085047114,0.9612866612199636,788.9377289377289,826.007326007326,755.4945054945055,774.4322344322345,697.4725274725275,0.170227,0.129456,0.903625,11.873169,0.650482,60.165863,489157.509158,154251428.571429,105741025.641026,79.049225,1,2,1,1,2,40.000000
2025-11-11 12:28:26.621,0.815835978164045,1.034818944203619,0.6112894660010192,0.6797081511657244,0.9207180794671357,0.723637404773789,0.7837098096063716,0.2570259798887443,0.9229635896228838,0.7803388376120052,0.9338904025546132,0.9930539725175822,1.084461583018795,0.3163676800559728,1.028639289604531,1.186365102796419,0.4145196753190616,0.009562895859670326,0.6941265085047114,0.9612866612199636,784.1025641025641,775.6410256410256,1594.395604395605,807.8754578754579,604.7985347985348,0.094727,0.262634,1.001160,4.501038,8.015137,41.660767,334432.234432,154087032.967033,106419560.439560,80.695366,1,2,1,1,2,40.000000
2025-11-11 12:28:27.149,,,,,,,,,,,,,,,,,,,,,,,,,,,,,,,,,,,,,,,,,,/muse/elements/blink
2025-11-11 12:28:27.627,0.815835978164045,1.071765396181019,0.6112894660010192,0.6797081511657244,0.9207180794671357,0.7513266875700446,0.7837098096063716,0.2570259798887443,0.9229635896228838,0.6464652952283323,0.9338904025546132,0.9930539725175822,1.084461583018795,0.4976608326606536,1.028639289604531,1.186365102796419,0.4145196753190616,0.1582696936575048,0.6941265085047114,0.9612866612199636,782.0879120879121,785.3113553113553,1343.772893772894,810.2930402930403,628.5714285714286,0.251831,0.165344,0.931396,4.530945,14.392853,40.748596,321538.461538,154613260.073260,106796703.296703,80.504128,1,2,1,2,2,40.000000
2025-11-11 12:28:28.192,,,,,,,,,,,,,,,,,,,,,,,,,,,,,,,,,,,,,,,,,,/muse/elements/blink
2025-11-11 12:28:28.621,0.815835978164045,1.80168116061695,0.6112894660010192,0.6797081511657244,0.9207180794671357,1.411525437836333,0.7837098096063716,0.2570259798887443,0.9229635896228838,1.114165423039998,0.9338904025546132,0.9930539725175822,1.084461583018795,0.1593632178904622,1.028639289604531,1.186365102796419,0.4145196753190616,-0.1034560154521268,0.6941265085047114,0.9612866612199636,828.8278388278388,822.7838827838829,774.4322344322345,818.3516483516484,727.2893772893773,0.150452,0.056763,0.978394,0.014954,-0.904694,24.067841,332014.652015,154869523.809524,106883736.263736,81.161583,1,2,1,1,2,40.000000
2025-11-11 12:28:29.067,,,,,,,,,,,,,,,,,,,,,,,,,,,,,,,,,,,,,,,,,,/muse/elements/blink
2025-11-11 12:28:29.629,0.815835978164045,1.846569425472819,0.6112894660010192,0.6797081511657244,0.9207180794671357,1.392906719698608,0.7837098096063716,0.2570259798887443,0.9229635896228838,1.073413932642529,0.9338904025546132,0.9930539725175822,1.084461583018795,0.16585276773151,1.028639289604531,1.186365102796419,0.4145196753190616,-0.105615696454633,0.6941265085047114,0.9612866612199636,825.6043956043957,816.7399267399268,790.1465201465202,817.1428571428571,673.6996336996338,0.084473,0.012817,1.006897,-19.394836,5.166473,22.333221,338461.538462,155527912.087912,107254432.234432,83.333946,1,2,1,1,2,40.000000
2025-11-11 12:28:30.107,,,,,,,,,,,,,,,,,,,,,,,,,,,,,,,,,,,,,,,,,,/muse/elements/blink
2025-11-11 12:28:30.628,0.815835978164045,1.646724197485089,0.6112894660010192,0.6797081511657244,0.9207180794671357,1.150447711686818,0.7837098096063716,0.2570259798887443,0.9229635896228838,0.7226205672643784,0.9338904025546132,0.9930539725175822,1.084461583018795,0.1603228858461583,1.028639289604531,1.186365102796419,0.4145196753190616,-0.253858598042292,0.6941265085047114,0.9612866612199636,813.919413919414,797.8021978021978,751.0622710622711,818.7545787545788,623.3333333333334,0.253784,0.219116,0.925842,5.233765,-12.740479,13.353577,330402.930403,156054945.054945,107283443.223443,85.213959,1,2,1,1,2,40.000000
2025-11-11 12:28:31.425,,,,,,,,,,,,,,,,,,,,,,,,,,,,,,,,,,,,,,,,,,/muse/elements/blink
2025-11-11 12:28:31.621,0.815835978164045,1.646724197485089,0.6112894660010192,0.6797081511657244,0.9207180794671357,1.150447711686818,0.7837098096063716,0.2570259798887443,0.9229635896228838,0.7226205672643784,0.9338904025546132,0.9930539725175822,1.084461583018795,0.1603228858461583,1.028639289604531,1.186365102796419,0.4145196753190616,-0.253858598042292,0.6941265085047114,0.9612866612199636,813.5164835164835,800.6227106227107,848.5714285714286,804.2490842490843,782.893772893773,0.360596,0.145142,0.844666,-8.665619,-7.977753,-24.449158,322344.322344,156428058.608059,107447838.827839,100.091400,1,2,1,1,2,40.000000
2025-11-11 12:28:31.624,,,,,,,,,,,,,,,,,,,,,,,,,,,,,,,,,,,,,,,,,,/muse/elements/blink
2025-11-11 12:28:31.942,,,,,,,,,,,,,,,,,,,,,,,,,,,,,,,,,,,,,,,,,,/muse/elements/blink
2025-11-11 12:28:32.367,,,,,,,,,,,,,,,,,,,,,,,,,,,,,,,,,,,,,,,,,,/muse/elements/blink
2025-11-11 12:28:32.630,0.815835978164045,0.9348509353016944,0.6112894660010192,0.6797081511657244,0.9207180794671357,0.7685155559669141,0.7837098096063716,0.2570259798887443,0.9229635896228838,0.6297272056201707,0.9338904025546132,0.9930539725175822,1.084461583018795,0.128801780820278,1.028639289604531,1.186365102796419,0.4145196753190616,-0.1778124311759087,0.6941265085047114,0.9612866612199636,842.5274725274726,826.4102564102565,750.2564102564103,849.3772893772895,788.1318681318681,0.116516,0.134460,0.940918,-18.721924,-9.652557,-60.053711,326373.626374,155609304.029304,106665347.985348,100.091400,1,2,1,1,2,40.000000
2025-11-11 12:28:33.626,1.768486410478972,1.14696301983476,0.6112894660010192,0.6797081511657244,1.682185214109877,1.272239953198055,0.7837098096063716,0.2570259798887443,1.090496293805176,0.7880224002366395,0.9338904025546132,0.9930539725175822,0.8042124068528445,0.187978260053596,1.028639289604531,1.186365102796419,0.7479315285961949,-0.1392765640980523,0.6941265085047114,0.9612866612199636,819.96336996337,779.2673992673992,873.1501831501831,811.0989010989011,716.007326007326,0.352417,0.090088,0.847168,-10.213318,-10.497437,-7.028198,327179.487179,155901831.501832,106880512.820513,95.406898,1,1,1,1,1,40.000000
2025-11-11 12:28:34.294,,,,,,,,,,,,,,,,,,,,,,,,,,,,,,,,,,,,,,,,,,/muse/elements/blink
2025-11-11 12:28:34.572,,,,,,,,,,,,,,,,,,,,,,,,,,,,,,,,,,,,,,,,,,/muse/elements/blink
2025-11-11 12:28:34.625,1.594135234820311,0.9974972440845182,0.6112894660010192,0.9705709537301919,1.470674978832052,0.8100092962899479,0.7837098096063716,0.9595441465616837,1.279741985862551,0.7934121123981666,0.9338904025546132,0.8055784655250646,0.938335177104796,0.215442564623997,1.028639289604531,0.962927654761308,0.6384284183992585,-0.2207231747126778,0.6941265085047114,0.7049871498414889,780.8791208791209,813.919413919414,580.6227106227107,806.6666666666667,568.1318681318681,0.199463,0.201172,0.912842,-1.562653,0.523376,-37.212067,323150.183150,155038754.578755,105837728.937729,89.283859,1,1,1,1,1,40.000000
2025-11-11 12:28:35.621,1.411292384859514,0.987535753873035,0.6112894660010192,0.7947109321457242,0.9867114784341001,0.7165343588187911,0.7837098096063716,0.8946755331950043,1.097161329861063,0.7057146982673834,0.9338904025546132,0.728815799550521,1.01393563841931,0.2851447519308837,1.028639289604531,0.9472082091197258,0.5461423536638762,0.1284009857294655,0.6941265085047114,0.7488937352056442,816.3369963369963,795.7875457875458,656.7765567765568,812.7106227106227,707.5457875457876,0.044739,0.162842,1.069031,-2.452393,-3.229980,-33.010101,313479.853480,154539926.739927,104981904.761905,89.283859,1,1,1,1,1,40.000000
2025-11-11 12:28:36.626,1.12088068659824,0.5044328325981833,0.6112894660010192,0.7947109321457242,0.6806199207415917,0.3474357159712587,0.7837098096063716,0.8946755331950043,0.7453764999290563,0.6767902720945188,0.9338904025546132,0.728815799550521,0.8199861128953448,0.3910130749161482,1.028639289604531,0.9472082091197258,0.9789155290588986,0.1739372093625455,0.6941265085047114,0.7488937352056442,799.0109890109891,822.3809523809524,814.3223443223443,802.6373626373627,616.8864468864469,0.119873,0.129272,0.948608,-0.867310,-27.312775,-39.522400,312673.992674,155426373.626374,105737802.197802,89.283859,1,1,1,1,1,40.000000
2025-11-11 12:28:36.935,,,,,,,,,,,,,,,,,,,,,,,,,,,,,,,,,,,,,,,,,,/muse/elements/blink
2025-11-11 12:28:37.422,,,,,,,,,,,,,,,,,,,,,,,,,,,,,,,,,,,,,,,,,,/muse/elements/blink
2025-11-11 12:28:37.615,,,,,,,,,,,,,,,,,,,,,,,,,,,,,,,,,,,,,,,,,,/muse/elements/blink
2025-11-11 12:28:37.624,0.9935896167354735,0.2359336647666683,0.6112894660010192,0.7947109321457242,0.6094313596411437,0.1042601846493231,0.7837098096063716,0.8946755331950043,0.6740169342997153,0.4274671578539886,0.9338904025546132,0.728815799550521,0.789937637710276,0.5033266598855378,1.028639289604531,0.9472082091197258,0.9998390500797645,0.01423256044163031,0.6941265085047114,0.7488937352056442,819.96336996337,796.1904761904763,819.5604395604396,838.0952380952381,580.2197802197802,0.108521,0.251709,1.026550,-8.239441,-12.396545,-40.262604,321538.461538,155858315.018315,106268864.468864,95.154350,1,1,1,1,1,40.000000
2025-11-11 12:28:38.317,,,,,,,,,,,,,,,,,,,,,,,,,,,,,,,,,,,,,,,,,,/muse/elements/blink
2025-11-11 12:28:38.622,0.9935896167354735,0.2359336647666683,0.6112894660010192,0.7947109321457242,0.6094313596411437,0.1042601846493231,0.7837098096063716,0.8946755331950043,0.6740169342997153,0.4274671578539886,0.9338904025546132,0.728815799550521,0.789937637710276,0.5033266598855378,1.028639289604531,0.9472082091197258,0.9998390500797645,0.01423256044163031,0.6941265085047114,0.7488937352056442,806.6666666666667,786.1172161172161,904.1758241758242,808.2783882783883,776.8498168498169,0.155151,0.248047,0.906921,-2.257996,5.846863,-15.574188,332820.512821,155967912.087912,106296263.736264,95.154350,1,1,1,1,1,40.000000
2025-11-11 12:28:38.742,,,,,,,,,,,,,,,,,,,,,,,,,,,,,,,,,,,,,,,,,,/muse/elements/blink
2025-11-11 12:28:39.443,,,,,,,,,,,,,,,,,,,,,,,,,,,,,,,,,,,,,,,,,,/muse/elements/blink
2025-11-11 12:28:39.623,0.9935896167354735,1.175306314224474,0.6112894660010192,0.7947109321457242,0.6094313596411437,0.785149123141842,0.7837098096063716,0.8946755331950043,0.6740169342997153,0.5495669620923372,0.9338904025546132,0.728815799550521,0.789937637710276,0.3121845357148744,1.028639289604531,0.9472082091197258,0.9998390500797645,-0.09068222535407366,0.6941265085047114,0.7488937352056442,894.5054945054945,801.025641025641,965.8241758241759,886.4468864468864,701.0989010989011,0.191101,0.148438,0.950134,1.614990,-12.456360,17.428436,345714.285714,155818021.978022,106107692.307692,95.154350,1,2,1,1,2,40.000000
2025-11-11 12:28:40.622,0.9935896167354735,1.101599096297772,0.6112894660010192,0.7947109321457242,0.6094313596411437,0.6552778717729623,0.7837098096063716,0.8946755331950043,0.6740169342997153,0.4360639556435808,0.9338904025546132,0.728815799550521,0.789937637710276,0.4502883788598581,1.028639289604531,0.9472082091197258,0.9998390500797645,-0.1456794939744094,0.6941265085047114,0.7488937352056442,841.3186813186813,811.9047619047619,940.0366300366301,830.8424908424909,538.7179487179487,0.143860,0.273621,1.141602,7.828217,12.688141,28.479156,378754.578755,155793040.293040,106183443.223443,95.154350,1,2,1,1,2,40.000000
2025-11-11 12:28:41.075,,,,,,,,,,,,,,,,,,,,,,,,,,,,,,,,,,,,,,,,,,/muse/elements/blink
2025-11-11 12:28:41.587,,,,,,,,,,,,,,,,,,,,,,,,,,,,,,,,,,,,,,,,,,/muse/elements/blink
2025-11-11 12:28:41.621,0.9935896167354735,0.7756182818796794,0.6112894660010192,0.7947109321457242,0.6094313596411437,0.1247286922587958,0.7837098096063716,0.8946755331950043,0.6740169342997153,0.3282436906220327,0.9338904025546132,0.728815799550521,0.789937637710276,0.2141407220622319,1.028639289604531,0.9472082091197258,0.9998390500797645,-0.1232148077805422,0.6941265085047114,0.7488937352056442,842.1245421245421,799.4139194139194,706.3369963369963,849.7802197802198,1239.41391941392,0.191589,0.195129,0.984741,1.151428,4.149628,26.916504,539926.739927,155138681.318681,105286520.146520,91.556541,1,2,1,1,2,40.000000
2025-11-11 12:28:42.622,0.9935896167354735,0.9551545761359739,0.6112894660010192,0.7947109321457242,0.6094313596411437,0.2403092562506864,0.7837098096063716,0.8946755331950043,0.6740169342997153,0.2266163137034387,0.9338904025546132,0.728815799550521,0.789937637710276,0.04837565354885424,1.028639289604531,0.9472082091197258,0.9998390500797645,-0.02521350073564184,0.6941265085047114,0.7488937352056442,811.9047619047619,803.040293040293,903.7728937728938,803.8461538461539,551.2087912087912,0.006958,0.100037,0.968384,-4.187012,0.201874,22.699585,522197.802198,154638241.758242,104515311.355311,86.427498,1,2,1,2,2,40.000000
2025-11-11 12:28:43.008,,,,,,,,,,,,,,,,,,,,,,,,,,,,,,,,,,,,,,,,,,/muse/elements/blink
2025-11-11 12:28:43.621,0.9935896167354735,0.9551545761359739,0.6112894660010192,0.7947109321457242,0.6094313596411437,0.2403092562506864,0.7837098096063716,0.8946755331950043,0.6740169342997153,0.2266163137034387,0.9338904025546132,0.728815799550521,0.789937637710276,0.04837565354885424,1.028639289604531,0.9472082091197258,0.9998390500797645,-0.02521350073564184,0.6941265085047114,0.7488937352056442,917.0695970695971,724.0659340659341,916.6666666666667,952.9304029304029,668.8644688644689,0.017334,0.215332,0.973206,4.987030,3.573914,69.930573,315897.435897,155432820.512821,105229304.029304,88.622749,1,2,1,1,2,40.000000
2025-11-11 12:28:43.624,,,,,,,,,,,,,,,,,,,,,,,,,,,,,,,,,,,,,,,,,,/muse/elements/blink
2025-11-11 12:28:44.622,0.9935896167354735,0.9551545761359739,0.6112894660010192,0.7947109321457242,0.6094313596411437,0.2403092562506864,0.7837098096063716,0.8946755331950043,0.6740169342997153,0.2266163137034387,0.9338904025546132,0.728815799550521,0.789937637710276,0.04837565354885424,1.028639289604531,0.9472082091197258,0.9998390500797645,-0.02521350073564184,0.6941265085047114,0.7488937352056442,767.1794871794872,811.0989010989011,744.2124542124542,757.9120879120879,694.2490842490843,0.162781,0.179749,0.986450,2.003784,7.850647,12.516174,319926.739927,155752747.252747,105879633.699634,88.869545,1,2,1,1,2,40.000000
2025-11-11 12:28:44.643,,,,,,,,,,,,,,,,,,,,,,,,,,,,,,,,,,,,,,,,,,/muse/elements/blink
2025-11-11 12:28:44.835,,,,,,,,,,,,,,,,,,,,,,,,,,,,,,,,,,,,,,,,,,/muse/elements/blink
2025-11-11 12:28:45.027,,,,,,,,,,,,,,,,,,,,,,,,,,,,,,,,,,,,,,,,,,/muse/elements/blink
2025-11-11 12:28:45.622,0.9935896167354735,0.9551545761359739,0.6112894660010192,0.7947109321457242,0.6094313596411437,0.2403092562506864,0.7837098096063716,0.8946755331950043,0.6740169342997153,0.2266163137034387,0.9338904025546132,0.728815799550521,0.789937637710276,0.04837565354885424,1.028639289604531,0.9472082091197258,0.9998390500797645,-0.02521350073564184,0.6941265085047114,0.7488937352056442,791.3553113553114,795.3846153846154,837.6923076923077,780.4761904761905,525.018315018315,0.103882,0.176819,0.949463,8.994598,4.972076,48.330078,326373.626374,154815531.135531,104289670.329670,87.057426,1,2,1,1,2,40.000000
2025-11-11 12:28:46.560,,,,,,,,,,,,,,,,,,,,,,,,,,,,,,,,,,,,,,,,,,/muse/elements/blink
2025-11-11 12:28:46.621,1.065999477304354,1.014232441118667,0.6112894660010192,0.9509977831112212,1.005380294839579,0.9275849102264118,0.7837098096063716,0.6969832953450746,0.8429998263165244,0.7220158864620652,0.9338904025546132,0.967637791002133,0.8968529655344694,0.7907032619867133,1.028639289604531,1.098772136352376,0.7975128241670236,0.3387726840028875,0.6941265085047114,0.9569627553513407,817.948717948718,802.6373626373627,918.6813186813187,790.5494505494506,676.9230769230769,0.064026,0.212769,0.969788,0.112152,6.258087,35.881195,333626.373626,154851794.871795,104179267.399267,86.545364,1,1,1,1,1,40.000000
2025-11-11 12:28:46.986,,,,,,,,,,,,,,,,,,,,,,,,,,,,,,,,,,,,,,,,,,/muse/elements/blink
2025-11-11 12:28:47.621,1.218730344727984,0.783220957746562,0.6112894660010192,1.102430424290201,1.038819934655596,0.6894358187360909,0.7837098096063716,0.8109597631062972,1.040282146566447,0.8279280063644853,0.9338904025546132,1.13514689444573,0.8224237851420771,0.7792410914812055,1.028639289604531,1.087103974066476,0.6920290923208968,0.3561651604771379,0.6941265085047114,0.9477024035517551,828.021978021978,809.4871794871796,877.985347985348,834.4688644688645,750.2564102564103,0.032532,0.176208,1.112793,3.162689,5.271149,5.256195,333626.373626,155357875.457875,104794139.194139,86.545364,1,1,1,1,1,40.000000
2025-11-11 12:28:48.505,,,,,,,,,,,,,,,,,,,,,,,,,,,,,,,,,,,,,,,,,,/muse/elements/blink
2025-11-11 12:28:48.622,1.218730344727984,1.295106381694463,0.6112894660010192,1.198616463640209,1.038819934655596,0.8002635670351412,0.7837098096063716,0.841058171332512,1.040282146566447,0.4643705054129577,0.9338904025546132,1.112868289031657,0.8224237851420771,0.3498019786530018,1.028639289604531,1.072203710902867,0.6920290923208968,-0.09813511509746999,0.6941265085047114,0.9636055961708146,816.7399267399268,800.2197802197802,787.3260073260074,805.8608058608058,622.5274725274726,0.153137,0.077393,0.974243,-3.140259,-10.280609,4.299164,325567.765568,155156410.256410,104804615.384615,86.545364,1,1,1,1,1,40.000000
2025-11-11 12:28:48.995,,,,,,,,,,,,,,,,,,,,,,,,,,,,,,,,,,,,,,,,,,/muse/elements/blink
2025-11-11 12:28:49.622,1.218730344727984,1.295106381694463,0.6112894660010192,1.198616463640209,1.038819934655596,0.8002635670351412,0.7837098096063716,0.841058171332512,1.040282146566447,0.4643705054129577,0.9338904025546132,1.112868289031657,0.8224237851420771,0.3498019786530018,1.028639289604531,1.072203710902867,0.6920290923208968,-0.09813511509746999,0.6941265085047114,0.9636055961708146,795.3846153846154,808.2783882783883,816.3369963369963,812.7106227106227,730.5128205128206,0.071289,0.191772,0.908264,0.538330,-2.063599,-14.004059,326373.626374,154821978.021978,104387985.347985,86.545364,1,2,1,1,2,40.000000
2025-11-11 12:28:50.320,,,,,,,,,,,,,,,,,,,,,,,,,,,,,,,,,,,,,,,,,,/muse/elements/blink
2025-11-11 12:28:50.628,1.218730344727984,0.8299396911121637,0.6112894660010192,1.198616463640209,1.038819934655596,0.4532743396449498,0.7837098096063716,0.841058171332512,1.040282146566447,0.5785764433029686,0.9338904025546132,1.112868289031657,0.8224237851420771,0.4352882743731198,1.028639289604531,1.072203710902867,0.6920290923208968,0.3424385197693915,0.6941265085047114,0.9636055961708146,866.3003663003664,798.2051282051282,778.4615384615385,874.7619047619048,892.4908424908425,0.124634,0.109436,0.998291,-2.220612,-6.527252,-21.174316,329597.069597,154802637.362637,104262271.062271,75.814972,1,2,1,1,2,40.000000
2025-11-11 12:28:50.746,,,,,,,,,,,,,,,,,,,,,,,,,,,,,,,,,,,,,,,,,,/muse/elements/blink
2025-11-11 12:28:51.627,1.218730344727984,0.7541034955075203,0.6112894660010192,1.198616463640209,1.038819934655596,0.3686261957346979,0.7837098096063716,0.841058171332512,1.040282146566447,0.2919644742481798,0.9338904025546132,1.112868289031657,0.8224237851420771,0.4638029478464543,1.028639289604531,1.072203710902867,0.6920290923208968,0.4547415938051603,0.6941265085047114,0.9636055961708146,812.7106227106227,761.941391941392,792.1611721611722,814.7252747252747,748.2417582417582,0.054138,0.106873,0.993774,0.635529,-12.927399,-29.413757,327179.487179,154969450.549451,104384761.904762,75.814972,1,2,1,1,2,40.000000
2025-11-11 12:28:52.323,,,,,,,,,,,,,,,,,,,,,,,,,,,,,,,,,,,,,,,,,,/muse/elements/blink
2025-11-11 12:28:52.630,1.218730344727984,0.7541034955075203,0.6112894660010192,1.198616463640209,1.038819934655596,0.3686261957346979,0.7837098096063716,0.841058171332512,1.040282146566447,0.2919644742481798,0.9338904025546132,1.112868289031657,0.8224237851420771,0.4638029478464543,1.028639289604531,1.072203710902867,0.6920290923208968,0.4547415938051603,0.6941265085047114,0.9636055961708146,807.8754578754579,801.8315018315019,792.1611721611722,810.2930402930403,677.7289377289377,0.067932,0.253845,0.973511,2.018738,-3.820648,-42.266388,325567.765568,154576190.476190,104187326.007326,75.814972,1,2,1,1,2,40.000000
2025-11-11 12:28:53.622,1.218730344727984,0.7541034955075203,0.6112894660010192,1.198616463640209,1.038819934655596,0.3686261957346979,0.7837098096063716,0.841058171332512,1.040282146566447,0.2919644742481798,0.9338904025546132,1.112868289031657,0.8224237851420771,0.4638029478464543,1.028639289604531,1.072203710902867,0.6920290923208968,0.4547415938051603,0.6941265085047114,0.9636055961708146,813.1135531135532,797.8021978021978,797.8021978021978,829.2307692307693,725.6776556776557,-0.058044,0.136230,1.129028,-3.730927,-12.418976,-34.094238,315091.575092,155180586.080586,104387985.347985,75.814972,1,2,1,1,2,40.000000
2025-11-11 12:28:54.068,,,,,,,,,,,,,,,,,,,,,,,,,,,,,,,,,,,,,,,,,,/muse/elements/blink
2025-11-11 12:28:54.622,1.623852547125429,0.7215658625727411,1.140523329990622,1.198616463640209,1.237995838246133,0.5142914510107098,1.305319303647117,0.841058171332512,1.240702374515074,0.4982248266303583,1.279388513932248,1.112868289031657,0.8080817841855735,0.4329600458304723,1.029179456357794,1.072203710902867,0.4628192843232352,0.1093153291539394,0.9095656229592697,0.9636055961708146,777.6556776556777,790.952380952381,867.1062271062272,782.0879120879121,611.2454212454213,0.028076,0.178833,0.921265,-0.171967,1.607513,-31.656799,311868.131868,155141904.761905,104170402.930403,81.780411,1,1,1,1,1,40.000000
2025-11-11 12:28:54.989,,,,,,,,,,,,,,,,,,,,,,,,,,,,,,,,,,,,,,,,,,/muse/elements/blink
2025-11-11 12:28:55.622,1.623852547125429,0.8505960920109948,1.140523329990622,1.198616463640209,1.237995838246133,0.7127735326491056,1.305319303647117,0.841058171332512,1.240702374515074,0.4443751300209122,1.279388513932248,1.112868289031657,0.8080817841855735,0.5092323377230609,1.029179456357794,1.072203710902867,0.4628192843232352,0.1315272403265977,0.9095656229592697,0.9636055961708146,835.6776556776557,786.9230769230769,825.6043956043957,855.0183150183151,630.1831501831502,0.105042,0.211243,0.940735,-0.530853,-13.921814,-44.389801,319120.879121,156052527.472527,105409816.849817,82.149063,1,1,1,1,1,40.000000
2025-11-11 12:28:56.503,,,,,,,,,,,,,,,,,,,,,,,,,,,,,,,,,,,,,,,,,,/muse/elements/blink
2025-11-11 12:28:56.622,1.623852547125429,0.8451528814396987,1.140523329990622,1.198616463640209,1.237995838246133,0.6993685406822659,1.305319303647117,0.841058171332512,1.240702374515074,0.4362337753687795,1.279388513932248,1.112868289031657,0.8080817841855735,0.5499952418189504,1.029179456357794,1.072203710902867,0.4628192843232352,0.1599243003547391,0.9095656229592697,0.9636055961708146,804.6520146520147,799.4139194139194,779.2673992673992,790.1465201465202,796.996336996337,0.128357,0.120361,0.982666,-2.272949,-5.398254,-28.621216,326373.626374,156081538.461538,105616117.216117,82.149063,1,2,1,1,2,40.000000
2025-11-11 12:28:56.758,,,,,,,,,,,,,,,,,,,,,,,,,,,,,,,,,,,,,,,,,,/muse/elements/blink
2025-11-11 12:28:57.122,,,,,,,,,,,,,,,,,,,,,,,,,,,,,,,,,,,,,,,,,,/muse/elements/blink
2025-11-11 12:28:57.622,1.623852547125429,0.938548350990232,1.140523329990622,1.198616463640209,1.237995838246133,0.4593726049566409,1.305319303647117,0.841058171332512,1.240702374515074,0.3506975686861509,1.279388513932248,1.112868289031657,0.8080817841855735,0.3064675739554675,1.029179456357794,1.072203710902867,0.4628192843232352,-0.09624646599203615,0.9095656229592697,0.9636055961708146,816.7399267399268,787.3260073260074,776.8498168498169,830.4395604395604,566.9230769230769,0.124817,0.124207,0.929626,-0.575714,4.927216,3.813171,339267.399267,155230549.450549,104964175.824176,82.149063,1,2,1,1,2,40.000000
2025-11-11 12:28:58.164,,,,,,,,,,,,,,,,,,,,,,,,,,,,,,,,,,,,,,,,,,/muse/elements/blink
2025-11-11 12:28:58.622,1.623852547125429,0.8457298675087965,1.140523329990622,1.198616463640209,1.237995838246133,0.890027558223926,1.305319303647117,0.841058171332512,1.240702374515074,0.6255426964785563,1.279388513932248,1.112868289031657,0.8080817841855735,0.3859883896386537,1.029179456357794,1.072203710902867,0.4628192843232352,0.06525529793233747,0.9095656229592697,0.9636055961708146,792.967032967033,795.7875457875458,1063.736263736264,796.1904761904763,528.6446886446887,0.065125,0.163940,0.947266,-3.416901,11.618958,32.307281,365860.805861,154246593.406593,104071282.051282,82.149063,1,2,1,1,2,40.000000
2025-11-11 12:28:58.694,,,,,,,,,,,,,,,,,,,,,,,,,,,,,,,,,,,,,,,,,,/muse/elements/blink
2025-11-11 12:28:59.624,1.623852547125429,1.025243823458639,1.140523329990622,1.144362560519102,1.237995838246133,0.9390270584130764,1.305319303647117,0.8392304412922731,1.240702374515074,0.7584002472666264,1.279388513932248,0.7583222031330047,0.8080817841855735,0.3865506599425926,1.029179456357794,0.906555368609244,0.4628192843232352,0.2432185214931858,0.9095656229592697,0.8217611654324801,815.934065934066,797.3992673992674,1171.721611721612,815.1282051282052,872.7472527472528,-0.034485,0.126587,1.023560,-0.613098,11.222687,13.891907,492380.952381,154002417.582418,104065641.025641,79.908699,1,1,1,4,1,40.000000
2025-11-11 12:29:00.167,,,,,,,,,,,,,,,,,,,,,,,,,,,,,,,,,,,,,,,,,,/muse/elements/blink
2025-11-11 12:29:00.571,,,,,,,,,,,,,,,,,,,,,,,,,,,,,,,,,,,,,,,,,,/muse/elements/blink
2025-11-11 12:29:00.628,1.623852547125429,-0.0224717242009644,1.140523329990622,1.076444900073037,1.237995838246133,-0.3592659994874879,1.305319303647117,0.787598879867437,1.240702374515074,0.2168465932764263,1.279388513932248,0.7730753123060989,0.8080817841855735,0.5268532840684669,1.029179456357794,0.7983900415427168,0.4628192843232352,0.357060653819636,0.9095656229592697,0.7465560821644889,818.3516483516484,796.996336996337,875.1648351648352,840.1098901098901,740.5860805860806,-0.021790,0.177856,1.023804,-0.284119,6.669312,20.037842,689816.849817,154419853.479853,104377509.157509,78.448166,1,1,1,1,1,40.000000
2025-11-11 12:29:01.298,,,,,,,,,,,,,,,,,,,,,,,,,,,,,,,,,,,,,,,,,,/muse/elements/blink
2025-11-11 12:29:01.628,1.623852547125429,-0.06178639437027462,1.140523329990622,0.9287933149661332,1.237995838246133,-0.07376642320682629,1.305319303647117,0.6471534060965819,1.240702374515074,0.1914293168213182,1.279388513932248,0.3549890398633154,0.8080817841855735,0.3633908128942737,1.029179456357794,0.5378151496463499,0.4628192843232352,0.3886828872611124,0.9095656229592697,0.6428876287777802,832.4542124542124,815.1282051282052,851.3919413919414,798.2051282051282,739.3772893772893,0.003296,0.184631,0.939026,-7.828217,6.130981,31.768951,344908.424908,154452087.912088,104379120.879121,78.514374,1,1,1,1,1,40.000000
2025-11-11 12:29:01.874,,,,,,,,,,,,,,,,,,,,,,,,,,,,,,,,,,,,,,,,,,/muse/elements/blink
2025-11-11 12:29:02.088,,,,,,,,,,,,,,,,,,,,,,,,,,,,,,,,,,,,,,,,,,/muse/elements/blink
2025-11-11 12:29:02.622,1.623852547125429,0.000650188581214428,1.140523329990622,0.9287933149661332,1.237995838246133,0.1984449561643379,1.305319303647117,0.6471534060965819,1.240702374515074,-0.154867127441941,1.279388513932248,0.3549890398633154,0.8080817841855735,0.2068835465424597,1.029179456357794,0.5378151496463499,0.4628192843232352,0.5284765033571496,0.9095656229592697,0.6428876287777802,645.8974358974359,743.4065934065934,786.1172161172161,686.996336996337,722.4542124542124,0.010925,0.110291,0.986267,-3.656158,9.346008,37.010193,324761.904762,154738168.498168,104900512.820513,78.820992,1,2,1,1,2,40.000000
2025-11-11 12:29:02.835,,,,,,,,,,,,,,,,,,,,,,,,,,,,,,,,,,,,,,,,,,/muse/elements/blink
2025-11-11 12:29:03.004,,,,,,,,,,,,,,,,,,,,,,,,,,,,,,,,,,,,,,,,,,/muse/elements/blink
2025-11-11 12:29:03.630,1.623852547125429,0.000650188581214428,1.140523329990622,0.9287933149661332,1.237995838246133,0.1984449561643379,1.305319303647117,0.6471534060965819,1.240702374515074,-0.154867127441941,1.279388513932248,0.3549890398633154,0.8080817841855735,0.2068835465424597,1.029179456357794,0.5378151496463499,0.4628192843232352,0.5284765033571496,0.9095656229592697,0.6428876287777802,814.3223443223443,802.6373626373627,881.6117216117217,799.4139194139194,571.3553113553114,-0.049377,0.233154,0.985229,-3.072968,9.981537,51.545105,346520.146520,154257069.597070,104093846.153846,77.418877,1,2,1,1,2,40.000000
2025-11-11 12:29:04.622,0.8298865792545169,0.1291908362436624,1.140523329990622,0.6455124180866988,0.7496803674027754,0.6951010051966147,1.305319303647117,0.7145540881382997,0.7850321152934695,0.5947396316051846,1.279388513932248,0.5631634319535156,0.9557183700748973,0.6184599098845808,1.029179456357794,0.9988162134770187,0.4773429288836641,0.339210972056752,0.9095656229592697,0.9502487400168006,849.7802197802198,808.6813186813187,760.3296703296703,852.6007326007326,703.919413919414,0.029480,0.193848,1.012207,3.798218,-4.074860,12.015228,340073.260073,154854212.454212,104372673.992674,72.555214,1,1,1,1,1,40.000000
2025-11-11 12:29:05.622,0.8280708269811566,0.4063108608008096,1.140523329990622,0.6455124180866988,0.581111835549011,0.2341333367263312,1.305319303647117,0.7145540881382997,0.7633783917996464,0.3320438931942493,1.279388513932248,0.5631634319535156,0.904506360570509,0.445356836158015,1.029179456357794,0.9988162134770187,0.461605174152505,0.2390061085543569,0.9095656229592697,0.9502487400168006,821.1721611721612,771.6117216117216,845.3479853479854,837.6923076923077,732.9304029304029,0.237427,0.093811,0.998291,5.263672,-19.170532,31.537170,335238.095238,155502124.542125,105574212.454212,72.555214,1,1,1,1,1,40.000000
2025-11-11 12:29:06.266,,,,,,,,,,,,,,,,,,,,,,,,,,,,,,,,,,,,,,,,,,/muse/elements/blink
2025-11-11 12:29:06.622,0.8280708269811566,0.9550582736181404,1.140523329990622,0.6455124180866988,0.581111835549011,0.0489176701981957,1.305319303647117,0.7145540881382997,0.7633783917996464,0.3220610483185594,1.279388513932248,0.5631634319535156,0.904506360570509,0.04616131318284628,1.029179456357794,0.9988162134770187,0.461605174152505,-0.1701063143912138,0.9095656229592697,0.9502487400168006,812.3076923076924,798.2051282051282,776.0439560439561,822.7838827838829,591.5018315018315,0.140259,0.156433,0.930664,2.115936,0.239258,6.968384,327985.347985,155096776.556777,105146300.366300,72.555214,1,1,1,1,1,40.000000
2025-11-11 12:29:06.667,,,,,,,,,,,,,,,,,,,,,,,,,,,,,,,,,,,,,,,,,,/muse/elements/blink
2025-11-11 12:29:06.965,,,,,,,,,,,,,,,,,,,,,,,,,,,,,,,,,,,,,,,,,,/muse/elements/blink
2025-11-11 12:29:07.622,0.8280708269811566,1.064942952949959,1.140523329990622,0.6455124180866988,0.581111835549011,0.3417936275906168,1.305319303647117,0.7145540881382997,0.7633783917996464,0.5563886214982847,1.279388513932248,0.5631634319535156,0.904506360570509,0.1858191647734535,1.029179456357794,0.9988162134770187,0.461605174152505,-0.04637451369412594,0.9095656229592697,0.9502487400168006,801.8315018315019,799.0109890109891,859.8534798534798,803.040293040293,687.8021978021978,-0.009827,0.115234,1.009399,-1.712189,1.637421,-11.798401,323956.043956,155076630.036630,104969010.989011,72.555214,1,2,1,1,2,40.000000
2025-11-11 12:29:08.622,0.4472777058339091,0.6025427675071837,1.140523329990622,0.2613088489794336,0.537499292545964,0.3786427426332574,1.305319303647117,0.6331293573989129,0.8697014657419625,0.6649918926737414,1.279388513932248,0.4596030476775089,0.5946484585781083,0.3627177883518579,1.029179456357794,0.7034143836900202,0.1465799340591426,0.1055587076325139,0.9095656229592697,0.2436407584973337,805.8608058608058,790.5494505494506,830.0366300366301,798.2051282051282,633.0036630036631,0.048401,0.180847,1.031921,-0.605621,2.340240,-12.688141,325567.765568,155781758.241758,105543589.743590,72.335167,1,1,1,1,1,40.000000
2025-11-11 12:29:09.623,1.018272938162151,0.1191412934898954,1.140523329990622,0.2613088489794336,0.8842521373429937,-0.09488125512027443,1.305319303647117,0.6331293573989129,0.9632423141686475,0.1954178893801801,1.279388513932248,0.4596030476775089,0.5552720294284541,0.324749809154653,1.029179456357794,0.7034143836900202,0.1461275777340128,0.1728037578779496,0.9095656229592697,0.2436407584973337,812.7106227106227,772.4175824175825,767.1794871794872,818.3516483516484,701.9047619047619,0.147095,0.123779,1.016479,-5.293579,-6.056213,-20.972443,330402.930403,155909890.109890,105853040.293040,72.142509,1,1,1,1,1,40.000000
2025-11-11 12:29:10.622,1.146429787027499,0.1191412934898954,1.140523329990622,1.020055654469832,1.009414656771153,-0.09488125512027443,1.305319303647117,0.9836764522566327,1.135916380036422,0.1954178893801801,1.279388513932248,1.016473032711476,0.6633163067477669,0.324749809154653,1.029179456357794,0.6116360234124942,0.009258799127674848,0.1728037578779496,0.9095656229592697,0.1562691634358284,735.7509157509157,950.5128205128206,691.025641025641,716.007326007326,755.0915750915751,0.221863,0.156433,1.023315,-10.430145,11.297455,-24.538879,322344.322344,155926813.186813,105726520.146520,72.142509,1,1,1,1,1,40.000000
2025-11-11 12:29:10.846,,,,,,,,,,,,,,,,,,,,,,,,,,,,,,,,,,,,,,,,,,/muse/elements/blink
2025-11-11 12:29:11.144,,,,,,,,,,,,,,,,,,,,,,,,,,,,,,,,,,,,,,,,,,/muse/elements/blink
2025-11-11 12:29:11.627,0.9504008687996455,0.1191412934898954,1.140523329990622,1.020055654469832,0.9679996846755619,-0.09488125512027443,1.305319303647117,0.9836764522566327,1.085491109479594,0.1954178893801801,1.279388513932248,1.016473032711476,0.6551096327204048,0.324749809154653,1.029179456357794,0.6116360234124942,0.03982660573715881,0.1728037578779496,0.9095656229592697,0.1562691634358284,824.7985347985348,809.8901098901099,1015.787545787546,819.5604395604396,747.032967032967,0.159607,0.166809,0.951233,-5.966492,-9.734802,-21.585541,325567.765568,155009743.589744,105052820.512821,72.142509,1,1,1,2,1,40.000000
2025-11-11 12:29:12.629,1.147954420686523,0.7451028151722922,1.140523329990622,1.020055654469832,0.4631594116247013,0.4127455967282674,1.305319303647117,0.9836764522566327,0.7587608968250033,0.491875130278342,1.279388513932248,1.016473032711476,0.6476199422197254,0.6015871685891576,1.029179456357794,0.6116360234124942,0.2861025291964682,0.1226064769945079,0.9095656229592697,0.1562691634358284,794.981684981685,790.952380952381,885.6410256410256,803.040293040293,585.0549450549451,0.169983,0.132568,0.953430,-1.091614,1.405640,-15.933075,323150.183150,155717289.377289,105658827.838828,72.142509,1,1,1,1,1,40.000000
2025-11-11 12:29:13.560,,,,,,,,,,,,,,,,,,,,,,,,,,,,,,,,,,,,,,,,,,/muse/elements/blink
2025-11-11 12:29:13.622,1.130554340961787,0.7996579350350725,1.140523329990622,1.020055654469832,0.4305328402340429,0.4315351485520662,1.305319303647117,0.9836764522566327,0.7645725682105172,0.6144864259794718,1.279388513932248,1.016473032711476,0.6413916387271079,0.3916866276427904,1.029179456357794,0.6116360234124942,0.3613273402187897,0.009411888874386102,0.9095656229592697,0.1562691634358284,805.4578754578755,799.4139194139194,731.3186813186813,820.7692307692308,741.7948717948718,0.300598,0.202881,0.958740,-7.895508,-7.858124,-38.101807,316703.296703,156177435.897436,105989230.769231,91.082710,1,1,1,1,1,40.000000
2025-11-11 12:29:14.622,0.7207750946661587,0.9686695208547308,1.140523329990622,1.020055654469832,0.6125896283835146,0.6922982243981589,1.305319303647117,0.9836764522566327,0.7275806477457321,0.6148860042737836,1.279388513932248,1.016473032711476,0.7155872272792145,0.2634183888312568,1.029179456357794,0.6116360234124942,0.334892059537181,-0.2271643260604032,0.9095656229592697,0.1562691634358284,808.6813186813187,816.7399267399268,608.4249084249085,812.3076923076924,880,0.326599,0.099182,0.910339,-10.138550,-11.693726,-29.899750,315091.575092,156079926.739927,105929597.069597,85.704407,1,1,1,1,1,40.000000
2025-11-11 12:29:15.197,,,,,,,,,,,,,,,,,,,,,,,,,,,,,,,,,,,,,,,,,,/muse/elements/blink
2025-11-11 12:29:15.495,,,,,,,,,,,,,,,,,,,,,,,,,,,,,,,,,,,,,,,,,,/muse/elements/blink
2025-11-11 12:29:15.622,0.8335470322069946,1.098648873391031,1.140523329990622,0.7189418505908237,0.7944588551711094,0.751466040996615,1.305319303647117,0.8514552889170335,0.8328972966349636,0.5508076353589076,1.279388513932248,0.7380989277723472,0.6763251058258722,0.4446307314465363,1.029179456357794,0.9430449239910271,0.2909894410236124,-0.2892286567035459,0.9095656229592697,0.2587611712835321,792.5641025641025,808.2783882783883,560.0732600732601,806.6666666666667,528.6446886446887,0.315430,0.230408,0.958862,-3.775787,-11.798401,-31.245575,317509.157509,156181465.201465,105931208.791209,78.971825,1,1,1,1,1,40.000000
2025-11-11 12:29:16.499,,,,,,,,,,,,,,,,,,,,,,,,,,,,,,,,,,,,,,,,,,/muse/elements/blink
2025-11-11 12:29:16.622,0.942742237728166,0.9284076958391371,1.140523329990622,0.8376495321290975,0.9490897693065047,0.6261645043931253,1.305319303647117,0.9477411912329522,0.5781249997285004,0.7732729314002315,1.279388513932248,0.6724325915595148,0.6216602119657343,0.1821990021418388,1.029179456357794,0.9925941724053139,0.2290237695494577,-0.1462909121898743,0.9095656229592697,0.2485453559268453,865.4945054945056,811.9047619047619,848.974358974359,875.1648351648352,636.2271062271062,0.189026,0.173340,0.966553,-0.545807,-3.603821,-19.596710,323956.043956,156258827.838828,106178608.058608,75.583290,1,1,1,4,1,40.000000
2025-11-11 12:29:17.622,0.942742237728166,0.6108261476899859,1.140523329990622,0.8376495321290975,0.9490897693065047,0.02752911917243559,1.305319303647117,0.9477411912329522,0.5781249997285004,0.5523709780728284,1.279388513932248,0.6724325915595148,0.6216602119657343,-0.03810236953388351,1.029179456357794,0.9925941724053139,0.2290237695494577,-0.2144761247290221,0.9095656229592697,0.2485453559268453,763.956043956044,807.4725274725275,756.3003663003664,759.92673992674,852.6007326007326,0.248169,0.189941,0.921631,0.852356,-3.723450,-4.478607,330402.930403,156636776.556777,106362344.322344,74.861069,1,1,1,2,1,40.000000
2025-11-11 12:29:17.732,,,,,,,,,,,,,,,,,,,,,,,,,,,,,,,,,,,,,,,,,,/muse/elements/blink
2025-11-11 12:29:17.924,,,,,,,,,,,,,,,,,,,,,,,,,,,,,,,,,,,,,,,,,,/muse/elements/blink
2025-11-11 12:29:18.244,,,,,,,,,,,,,,,,,,,,,,,,,,,,,,,,,,,,,,,,,,/muse/elements/blink
2025-11-11 12:29:18.622,0.942742237728166,1.140688492923886,1.140523329990622,0.8376495321290975,0.9490897693065047,0.4977461679125155,1.305319303647117,0.9477411912329522,0.5781249997285004,0.5507151360863632,1.279388513932248,0.6724325915595148,0.6216602119657343,0.2533962145651342,1.029179456357794,0.9925941724053139,0.2290237695494577,-0.1339437226241144,0.9095656229592697,0.2485453559268453,814.3223443223443,804.6520146520147,813.5164835164835,822.7838827838829,620.5128205128206,0.117310,0.100952,1.003845,0.194397,2.557068,-0.119629,337655.677656,155705201.465201,105591941.391941,73.522186,1,2,1,2,2,40.000000
2025-11-11 12:29:19.622,0.942742237728166,1.111243795489698,1.140523329990622,0.8376495321290975,0.9490897693065047,0.9743386530902621,1.305319303647117,0.9477411912329522,0.5781249997285004,0.9534114029016834,1.279388513932248,0.6724325915595148,0.6216602119657343,0.5034190729194543,1.029179456357794,0.9925941724053139,0.2290237695494577,-0.04219608907796993,0.9095656229592697,0.2485453559268453,834.8717948717949,836.0805860805862,911.4285714285714,828.4249084249085,683.3699633699634,0.032837,0.172913,0.989685,-4.620667,5.929108,10.721741,364249.084249,155718095.238095,105544395.604396,73.890663,1,2,1,2,2,40.000000
2025-11-11 12:29:19.674,,,,,,,,,,,,,,,,,,,,,,,,,,,,,,,,,,,,,,,,,,/muse/elements/blink
2025-11-11 12:29:20.163,,,,,,,,,,,,,,,,,,,,,,,,,,,,,,,,,,,,,,,,,,/muse/elements/blink
2025-11-11 12:29:20.622,0.942742237728166,1.168749336668258,1.140523329990622,0.8376495321290975,0.9490897693065047,1.066757427950536,1.305319303647117,0.9477411912329522,0.5781249997285004,0.9534114029016834,1.279388513932248,0.6724325915595148,0.6216602119657343,0.4763816826121026,1.029179456357794,0.9925941724053139,0.2290237695494577,-0.08068981706006216,0.9095656229592697,0.2485453559268453,799.8168498168499,790.952380952381,804.6520146520147,794.5787545787546,908.2051282051282,0.116943,0.157532,0.907410,-8.314209,2.796326,3.050537,423882.783883,155831721.611722,105459780.219780,82.837563,1,2,1,1,2,40.000000
2025-11-11 12:29:21.622,0.942742237728166,1.220534072509032,1.140523329990622,0.8376495321290975,0.9490897693065047,1.071127670979201,1.305319303647117,0.9477411912329522,0.5781249997285004,0.9307126514322313,1.279388513932248,0.6724325915595148,0.6216602119657343,0.5088453666523157,1.029179456357794,0.9925941724053139,0.2290237695494577,-0.07273445409180657,0.9095656229592697,0.2485453559268453,826.8131868131868,799.8168498168499,1160.842490842491,831.6483516483516,634.2124542124542,0.090210,0.143799,1.013245,6.833801,16.508789,44.128113,626153.846154,154990402.930403,105014945.054945,82.934486,1,2,1,1,2,40.000000
2025-11-11 12:29:21.740,,,,,,,,,,,,,,,,,,,,,,,,,,,,,,,,,,,,,,,,,,/muse/elements/blink
2025-11-11 12:29:22.625,0.942742237728166,1.220534072509032,1.140523329990622,0.8376495321290975,0.9490897693065047,1.071127670979201,1.305319303647117,0.9477411912329522,0.5781249997285004,0.9307126514322313,1.279388513932248,0.6724325915595148,0.6216602119657343,0.5088453666523157,1.029179456357794,0.9925941724053139,0.2290237695494577,-0.07273445409180657,0.9095656229592697,0.2485453559268453,797.3992673992674,798.6080586080586,817.1428571428571,807.4725274725275,712.7838827838829,0.072754,0.185181,0.969788,-5.667419,-9.375916,17.174225,379560.439560,154860659.340659,105077802.197802,81.690079,1,2,1,1,2,40.000000
2025-11-11 12:29:23.622,0.7738157869184021,-0.04610001521472371,1.140523329990622,0.8683389097705979,0.3505649862724275,0.1010244370199611,1.305319303647117,0.5987185074814027,0.7995257073368559,0.0741992640932204,1.279388513932248,0.6496385734803314,0.6212480263846313,0.6861694703587842,1.029179456357794,0.6744886026960815,0.09952154604773319,0.3171839894825974,0.9095656229592697,0.2816732237797189,920.2930402930403,716.4102564102565,806.2637362637363,952.5274725274726,848.1684981684982,0.087891,0.131409,0.970398,6.310425,2.302856,53.391876,315091.575092,155270842.490842,105511355.311355,79.356979,1,1,1,1,1,40.000000
2025-11-11 12:29:23.741,,,,,,,,,,,,,,,,,,,,,,,,,,,,,,,,,,,,,,,,,,/muse/elements/blink
2025-11-11 12:29:23.912,,,,,,,,,,,,,,,,,,,,,,,,,,,,,,,,,,,,,,,,,,/muse/elements/blink
2025-11-11 12:29:24.631,0.8511331713343655,0.03365645145621354,1.140523329990622,0.7647349494340874,0.5351291249326482,0.1344945006949068,1.305319303647117,0.6375094763997702,0.648271437457576,-0.04636745559766527,1.279388513932248,0.58825953309415,0.6575267047500583,0.7045960419680206,1.029179456357794,0.6230318250660342,0.0628909560388351,0.3881288536131278,0.9095656229592697,0.2384887029151012,683.3699633699634,788.9377289377289,780.0732600732601,683.7728937728938,583.4432234432235,0.172485,0.203918,0.979797,7.379608,9.757233,30.871735,321538.461538,156237875.457875,106405860.805861,79.356979,1,1,1,1,1,40.000000
2025-11-11 12:29:24.853,,,,,,,,,,,,,,,,,,,,,,,,,,,,,,,,,,,,,,,,,,/muse/elements/blink
2025-11-11 12:29:25.131,,,,,,,,,,,,,,,,,,,,,,,,,,,,,,,,,,,,,,,,,,/muse/elements/blink
2025-11-11 12:29:25.556,,,,,,,,,,,,,,,,,,,,,,,,,,,,,,,,,,,,,,,,,,/muse/elements/blink
2025-11-11 12:29:25.631,0.8511331713343655,1.190131617494656,1.140523329990622,0.7647349494340874,0.5351291249326482,0.9333688848083707,1.305319303647117,0.6375094763997702,0.648271437457576,0.8766239379625757,1.279388513932248,0.58825953309415,0.6575267047500583,0.2299463342724073,1.029179456357794,0.6230318250660342,0.0628909560388351,0.04391822690107811,0.9095656229592697,0.2384887029151012,832.4542124542124,772.4175824175825,790.5494505494506,834.4688644688645,688.6080586080586,0.199341,0.184998,0.948242,2.415009,5.592651,26.916504,327179.487179,155793846.153846,105849816.849817,79.077644,1,1,1,1,1,40.000000
2025-11-11 12:29:26.474,,,,,,,,,,,,,,,,,,,,,,,,,,,,,,,,,,,,,,,,,,/muse/elements/blink
2025-11-11 12:29:26.622,0.8511331713343655,1.041586871757547,1.140523329990622,0.7647349494340874,0.5351291249326482,0.845158191660903,1.305319303647117,0.6375094763997702,0.648271437457576,0.9108055776518446,1.279388513932248,0.58825953309415,0.6575267047500583,0.3288655119721433,1.029179456357794,0.6230318250660342,0.0628909560388351,-0.001634821406781635,0.9095656229592697,0.2384887029151012,801.4285714285714,805.0549450549451,799.4139194139194,806.2637362637363,714.7985347985348,0.226501,0.110535,0.916626,4.351501,-1.308441,21.809845,334432.234432,155852673.992674,106094798.534799,77.576263,1,2,1,1,2,40.000000
2025-11-11 12:29:27.392,,,,,,,,,,,,,,,,,,,,,,,,,,,,,,,,,,,,,,,,,,/muse/elements/blink
2025-11-11 12:29:27.623,0.8511331713343655,1.034644608008845,1.140523329990622,0.7647349494340874,0.5351291249326482,0.52801757396552,1.305319303647117,0.6375094763997702,0.648271437457576,0.5514123416899439,1.279388513932248,0.58825953309415,0.6575267047500583,0.2507738059092933,1.029179456357794,0.6230318250660342,0.0628909560388351,-0.006905418796176709,0.9095656229592697,0.2384887029151012,807.4725274725275,808.2783882783883,822.7838827838829,805.8608058608058,637.8388278388279,0.227417,0.169983,0.928467,1.555176,4.889832,21.488342,332820.512821,155863150.183150,106016630.036630,77.576263,1,2,1,1,2,40.000000
2025-11-11 12:29:28.498,,,,,,,,,,,,,,,,,,,,,,,,,,,,,,,,,,,,,,,,,,/muse/elements/blink
2025-11-11 12:29:28.623,0.8511331713343655,0.9885061339170341,1.140523329990622,0.7647349494340874,0.5351291249326482,0.3883854321235408,1.305319303647117,0.6375094763997702,0.648271437457576,0.1738080481466122,1.279388513932248,0.58825953309415,0.6575267047500583,0.1782253643170066,1.029179456357794,0.6230318250660342,0.0628909560388351,-0.1092127072324221,0.9095656229592697,0.2384887029151012,805.8608058608058,792.1611721611722,805.0549450549451,811.5018315018315,645.0915750915751,0.188232,0.062378,0.931091,-1.839294,3.588867,-0.403748,327985.347985,155471501.831502,105898974.358974,77.576263,1,2,1,1,2,40.000000
2025-11-11 12:29:28.711,,,,,,,,,,,,,,,,,,,,,,,,,,,,,,,,,,,,,,,,,,/muse/elements/blink
2025-11-11 12:29:29.623,0.8511331713343655,0.939355507737912,1.140523329990622,0.7647349494340874,0.5351291249326482,0.2931883945203476,1.305319303647117,0.6375094763997702,0.648271437457576,0.2054921701923681,1.279388513932248,0.58825953309415,0.6575267047500583,0.1070842787195528,1.029179456357794,0.6230318250660342,0.0628909560388351,-0.184064399020713,0.9095656229592697,0.2384887029151012,778.4615384615385,796.5934065934066,752.2710622710623,775.6410256410256,734.9450549450549,0.054443,0.200745,0.964294,-3.768311,0.299072,4.844971,327179.487179,154559267.399267,105268791.208791,77.576134,1,2,1,1,2,40.000000
2025-11-11 12:29:30.437,,,,,,,,,,,,,,,,,,,,,,,,,,,,,,,,,,,,,,,,,,/muse/elements/blink
2025-11-11 12:29:30.622,1.087857907227689,0.8720302581758893,1.140523329990622,0.7647349494340874,1.326050428525271,0.4165820454788327,1.305319303647117,0.6375094763997702,1.297614454666908,0.4939886248540454,1.279388513932248,0.58825953309415,0.8946828955627344,0.358191076031536,1.029179456357794,0.6230318250660342,0.3358240314067814,0.1360387875335508,0.9095656229592697,0.2384887029151012,796.5934065934066,792.967032967033,783.2967032967033,785.7142857142858,650.7326007326008,0.141296,0.045776,0.993469,-2.758942,-3.155212,-29.107208,322344.322344,155373186.813187,106185860.805861,77.576134,1,1,1,1,1,40.000000
2025-11-11 12:29:31.623,1.093268888086329,0.71767473019682,1.140523329990622,0.7647349494340874,1.216374855719799,0.487800444355078,1.305319303647117,0.6375094763997702,1.288104721195475,0.5577462258704493,1.279388513932248,0.58825953309415,0.9208692065566525,0.3514875911306314,1.029179456357794,0.6230318250660342,0.3548504591842352,0.162684825606161,0.9095656229592697,0.2384887029151012,735.7509157509157,778.0586080586081,754.6886446886447,715.2014652014652,876.3736263736264,0.322876,0.107178,0.927551,-17.854614,0.687866,-26.408081,314285.714286,155589157.509158,106140732.600733,77.128143,1,1,1,1,1,40.000000
2025-11-11 12:29:31.840,,,,,,,,,,,,,,,,,,,,,,,,,,,,,,,,,,,,,,,,,,/muse/elements/blink
2025-11-11 12:29:32.265,,,,,,,,,,,,,,,,,,,,,,,,,,,,,,,,,,,,,,,,,,/muse/elements/blink
2025-11-11 12:29:32.622,1.093268888086329,1.1286540962518,1.140523329990622,0.7647349494340874,1.216374855719799,0.9133441470533925,1.305319303647117,0.6375094763997702,1.288104721195475,0.3872765120563165,1.279388513932248,0.58825953309415,0.9208692065566525,0.4912084156562407,1.029179456357794,0.6230318250660342,0.3548504591842352,-0.05977593849860899,0.9095656229592697,0.2384887029151012,654.3589743589744,881.2087912087912,1107.655677655678,578.6080586080586,678.9377289377289,0.266907,0.192444,0.960327,-4.777679,-9.316101,-56.061096,325567.765568,154896117.216117,105471868.131868,73.967018,1,1,1,4,1,40.000000
2025-11-11 12:29:32.776,,,,,,,,,,,,,,,,,,,,,,,,,,,,,,,,,,,,,,,,,,/muse/elements/blink
2025-11-11 12:29:33.623,1.093268888086329,1.208674500371849,1.140523329990622,0.7647349494340874,1.216374855719799,0.9584866771799359,1.305319303647117,0.6375094763997702,1.288104721195475,0.3800206245559834,1.279388513932248,0.58825953309415,0.9208692065566525,0.5156605762614416,1.029179456357794,0.6230318250660342,0.3548504591842352,-0.09431869143451062,0.9095656229592697,0.2384887029151012,821.978021978022,810.2930402930403,750.6593406593407,828.4249084249085,752.2710622710623,0.005737,0.174194,0.977356,-5.226288,-17.435913,-41.286926,322344.322344,154105567.765568,105954578.754579,73.967018,1,2,1,1,2,40.000000
2025-11-11 12:29:34.372,,,,,,,,,,,,,,,,,,,,,,,,,,,,,,,,,,,,,,,,,,/muse/elements/blink
2025-11-11 12:29:34.622,1.093268888086329,1.208674500371849,1.140523329990622,0.7647349494340874,1.216374855719799,0.9584866771799359,1.305319303647117,0.6375094763997702,1.288104721195475,0.3800206245559834,1.279388513932248,0.58825953309415,0.9208692065566525,0.5156605762614416,1.029179456357794,0.6230318250660342,0.3548504591842352,-0.09431869143451062,0.9095656229592697,0.2384887029151012,809.8901098901099,767.5824175824176,711.978021978022,826.007326007326,1077.032967032967,0.005737,0.235962,0.992371,-1.383209,1.203766,-17.458344,314285.714286,154769597.069597,106535604.395604,73.458862,1,2,1,1,2,40.000000
2025-11-11 12:29:35.622,1.093268888086329,1.208674500371849,1.140523329990622,0.7647349494340874,1.216374855719799,0.9584866771799359,1.305319303647117,0.6375094763997702,1.288104721195475,0.3800206245559834,1.279388513932248,0.58825953309415,0.9208692065566525,0.5156605762614416,1.029179456357794,0.6230318250660342,0.3548504591842352,-0.09431869143451062,0.9095656229592697,0.2384887029151012,813.1135531135532,867.5091575091575,722.0512820512821,750.2564102564103,650.3296703296703,0.131348,0.197876,1.011230,-10.340424,-19.402313,-30.789490,313479.853480,154879194.139194,106256776.556777,73.663872,1,2,1,1,2,40.000000
2025-11-11 12:29:36.210,,,,,,,,,,,,,,,,,,,,,,,,,,,,,,,,,,,,,,,,,,/muse/elements/blink
2025-11-11 12:29:36.616,,,,,,,,,,,,,,,,,,,,,,,,,,,,,,,,,,,,,,,,,,/muse/elements/blink
2025-11-11 12:29:36.627,1.093268888086329,1.208674500371849,1.140523329990622,0.7647349494340874,1.216374855719799,0.9584866771799359,1.305319303647117,0.6375094763997702,1.288104721195475,0.3800206245559834,1.279388513932248,0.58825953309415,0.9208692065566525,0.5156605762614416,1.029179456357794,0.6230318250660342,0.3548504591842352,-0.09431869143451062,0.9095656229592697,0.2384887029151012,790.5494505494506,800.6227106227107,896.5201465201466,814.3223443223443,699.8901098901099,0.211853,0.164612,0.926270,-7.304840,25.765076,-20.531311,316703.296703,154260293.040293,105844981.684982,74.133316,1,2,1,1,2,40.000000
2025-11-11 12:29:36.809,,,,,,,,,,,,,,,,,,,,,,,,,,,,,,,,,,,,,,,,,,/muse/elements/blink
2025-11-11 12:29:37.425,,,,,,,,,,,,,,,,,,,,,,,,,,,,,,,,,,,,,,,,,,/muse/elements/blink
2025-11-11 12:29:37.626,1.093268888086329,1.208674500371849,1.140523329990622,0.7647349494340874,1.216374855719799,0.9584866771799359,1.305319303647117,0.6375094763997702,1.288104721195475,0.3800206245559834,1.279388513932248,0.58825953309415,0.9208692065566525,0.5156605762614416,1.029179456357794,0.6230318250660342,0.3548504591842352,-0.09431869143451062,0.9095656229592697,0.2384887029151012,797.3992673992674,801.4285714285714,699.8901098901099,799.0109890109891,998.0586080586081,0.112061,0.231873,0.974670,2.833710,-11.297455,-22.138824,329597.069597,154755897.435897,106359120.879121,74.057701,1,2,1,1,2,40.000000
2025-11-11 12:29:38.040,,,,,,,,,,,,,,,,,,,,,,,,,,,,,,,,,,,,,,,,,,/muse/elements/blink
2025-11-11 12:29:38.622,1.093268888086329,1.208674500371849,1.140523329990622,0.7647349494340874,1.216374855719799,0.9584866771799359,1.305319303647117,0.6375094763997702,1.288104721195475,0.3800206245559834,1.279388513932248,0.58825953309415,0.9208692065566525,0.5156605762614416,1.029179456357794,0.6230318250660342,0.3548504591842352,-0.09431869143451062,0.9095656229592697,0.2384887029151012,813.5164835164835,786.9230769230769,799.8168498168499,807.8754578754579,671.6849816849817,0.041992,0.132690,1.093445,-0.000000,4.358978,-8.015137,337655.677656,154090256.410256,105695091.575092,74.057701,1,2,1,1,2,40.000000
2025-11-11 12:29:38.784,,,,,,,,,,,,,,,,,,,,,,,,,,,,,,,,,,,,,,,,,,/muse/elements/blink
2025-11-11 12:29:39.629,1.093268888086329,1.067763051528705,1.140523329990622,1.48645689489625,1.216374855719799,0.6415679951748764,1.305319303647117,1.549905828595014,1.288104721195475,0.447151638193295,1.279388513932248,1.490255595809533,0.9208692065566525,0.3483168985871213,1.029179456357794,1.105960735424456,0.3548504591842352,-0.08066832582505279,0.9095656229592697,0.7702254922129514,786.5201465201466,794.981684981685,806.2637362637363,789.3406593406594,682.5641025641025,0.000977,0.139160,1.031921,0.336456,0.874786,26.146393,365054.945055,153788058.608059,105394505.494505,74.057701,1,1,1,1,1,40.000000
2025-11-11 12:29:40.193,,,,,,,,,,,,,,,,,,,,,,,,,,,,,,,,,,,,,,,,,,/muse/elements/blink
2025-11-11 12:29:40.622,1.416934660584091,1.008362609944751,1.140523329990622,1.373548155722564,1.367417483877944,0.5713720591165623,1.305319303647117,1.295520288022736,1.380214666028635,0.4974674005995316,1.279388513932248,1.442413304855821,0.9739126897420558,0.3547133294665626,1.029179456357794,1.033459506605285,0.702633485389706,0.006471521084765741,0.9095656229592697,0.6438739115028371,815.1282051282052,788.5347985347986,763.956043956044,807.8754578754579,922.7106227106227,0.072083,0.179504,0.935242,-4.598236,-2.138367,27.866058,441611.721612,154543956.043956,106261611.721612,74.057701,1,1,1,1,1,40.000000
2025-11-11 12:29:41.232,,,,,,,,,,,,,,,,,,,,,,,,,,,,,,,,,,,,,,,,,,/muse/elements/blink
2025-11-11 12:29:41.623,1.416934660584091,0.9161945329257793,1.140523329990622,1.318026177919329,1.367417483877944,0.2854605763344469,1.305319303647117,1.072466998025011,1.380214666028635,0.2068640902306524,1.279388513932248,1.220422694737659,0.9739126897420558,0.2829333768834538,1.029179456357794,0.9973823604185231,0.702633485389706,-0.05104509119486302,0.9095656229592697,0.5723359029116651,818.3516483516484,802.6373626373627,833.2600732600733,826.007326007326,587.4725274725275,0.019226,0.136963,0.991516,-4.269257,4.179535,19.791107,621318.681319,153864615.384615,105547619.047619,74.057701,1,1,1,1,1,40.000000
2025-11-11 12:29:42.205,,,,,,,,,,,,,,,,,,,,,,,,,,,,,,,,,,,,,,,,,,/muse/elements/blink
2025-11-11 12:29:42.623,1.416934660584091,1.432381129665611,1.140523329990622,1.318026177919329,1.367417483877944,0.9650229495041608,1.305319303647117,1.072466998025011,1.380214666028635,0.8392913394395953,1.279388513932248,1.220422694737659,0.9739126897420558,0.4800092166501468,1.029179456357794,0.9973823604185231,0.702633485389706,-0.01057071399431315,0.9095656229592697,0.5723359029116651,798.2051282051282,757.1062271062272,844.5421245421246,824.3956043956044,852.1978021978023,0.048889,0.121521,0.954834,-1.158905,3.431854,35.440063,363443.223443,154394871.794872,105847399.267399,74.057701,1,2,1,1,2,40.000000
2025-11-11 12:29:43.623,0.9476515792931389,1.432381129665611,1.140523329990622,1.33709052638154,0.8947633710926483,0.9650229495041608,1.305319303647117,1.0688151778298,0.9123911107234263,0.8392913394395953,1.279388513932248,0.9932168579749154,0.5326542607384652,0.4800092166501468,1.029179456357794,0.8035098083151203,0.3653637874658166,-0.01057071399431315,0.9095656229592697,0.2718302309834041,802.6373626373627,808.6813186813187,762.7472527472528,812.7106227106227,747.8388278388279,0.144165,0.204956,0.930359,0.351410,5.959015,46.655273,316703.296703,154948498.168498,106558974.358974,74.057701,1,1,1,1,1,40.000000
2025-11-11 12:29:44.370,,,,,,,,,,,,,,,,,,,,,,,,,,,,,,,,,,,,,,,,,,/muse/elements/blink
2025-11-11 12:29:44.623,1.027318804485318,1.432381129665611,1.140523329990622,1.33709052638154,0.960771641469477,0.9650229495041608,1.305319303647117,1.0688151778298,1.219129856018102,0.8392913394395953,1.279388513932248,0.9932168579749154,0.6124394990583478,0.4800092166501468,1.029179456357794,0.8035098083151203,0.3792566795823921,-0.01057071399431315,0.9095656229592697,0.2718302309834041,788.5347985347986,789.7435897435897,827.6190476190476,794.5787545787546,593.919413919414,0.148254,0.076782,0.960938,2.729034,2.833710,34.236298,326373.626374,155310329.670330,106851501.831502,74.057701,1,1,1,1,1,40.000000
2025-11-11 12:29:45.153,,,,,,,,,,,,,,,,,,,,,,,,,,,,,,,,,,,,,,,,,,/muse/elements/blink
2025-11-11 12:29:45.629,1.671004295628823,1.022629103441569,1.140523329990622,1.49870222359674,1.372122859297675,0.803620491254071,1.305319303647117,1.18832294797752,1.192744185762547,0.6026075951936052,1.279388513932248,1.189200707668726,0.6218970650168434,0.1327164009384489,1.029179456357794,0.7895861698962499,0.1742911281007982,-0.01524609704794995,0.9095656229592697,0.6615333281848378,802.2344322344322,810.2930402930403,812.7106227106227,808.6813186813187,784.5054945054945,0.188965,0.212830,0.965271,5.637512,5.510406,34.251251,332820.512821,155295824.175824,106793479.853480,70.942444,1,1,1,1,1,40.000000
2025-11-11 12:29:45.942,,,,,,,,,,,,,,,,,,,,,,,,,,,,,,,,,,,,,,,,,,/muse/elements/blink
2025-11-11 12:29:46.262,,,,,,,,,,,,,,,,,,,,,,,,,,,,,,,,,,,,,,,,,,/muse/elements/blink
2025-11-11 12:29:46.623,1.794673977670338,1.095912088054174,1.140523329990622,1.626367859142554,1.340864044298546,0.7182446409722339,1.305319303647117,1.43831733413226,1.066538914673977,0.7161590860931031,1.279388513932248,0.9377758156947728,0.7098133075358203,0.2968403779369654,1.029179456357794,0.8916007807169224,0.236224904770438,-0.01336000727899739,0.9095656229592697,0.5097956281309981,802.2344322344322,803.4432234432235,793.3699633699634,815.1282051282052,753.8827838827839,0.123474,0.197876,0.993530,6.048737,12.456360,20.082703,339267.399267,154951721.611722,106568644.688645,69.741692,1,1,1,1,1,40.000000
2025-11-11 12:29:47.071,,,,,,,,,,,,,,,,,,,,,,,,,,,,,,,,,,,,,,,,,,/muse/elements/blink
2025-11-11 12:29:47.498,,,,,,,,,,,,,,,,,,,,,,,,,,,,,,,,,,,,,,,,,,/muse/elements/blink
2025-11-11 12:29:47.623,1.701092464550724,1.193497777871091,1.140523329990622,1.599580207151396,1.315037865791487,0.7620633133908392,1.305319303647117,1.540132958594408,0.9770545898190289,0.6426143256258723,1.279388513932248,0.8554299265998011,0.7706856131291464,0.3674246287589015,1.029179456357794,0.8934457090516325,0.1769408904547443,-0.1125321081541669,0.9095656229592697,0.4406154162234488,814.7252747252747,812.7106227106227,836.0805860805862,817.948717948718,690.2197802197802,0.140991,0.065613,0.903809,-3.372040,-6.594543,-1.061707,333626.373626,154636630.036630,106193113.553114,70.497841,1,1,1,1,1,40.000000
2025-11-11 12:29:48.623,1.701092464550724,1.116190252374122,1.140523329990622,1.551734031354686,1.315037865791487,0.8167254100102074,1.305319303647117,1.535762142709375,0.9770545898190289,0.3993418025162669,1.279388513932248,0.8197426870599396,0.7706856131291464,0.2027457664801495,1.029179456357794,0.8205921027445228,0.1769408904547443,-0.1911035094769643,0.9095656229592697,0.4195434582917581,798.6080586080586,784.5054945054945,736.5567765567765,794.981684981685,641.0622710622711,0.323853,0.211365,0.914734,-1.173859,-12.119904,-1.659851,327179.487179,155801098.901099,107076336.996337,72.053658,1,1,1,1,1,40.000000
2025-11-11 12:29:49.330,,,,,,,,,,,,,,,,,,,,,,,,,,,,,,,,,,,,,,,,,,/muse/elements/blink
2025-11-11 12:29:49.623,1.701092464550724,0.7040540996023489,1.140523329990622,1.551734031354686,1.315037865791487,0.5741535267285042,1.305319303647117,1.535762142709375,0.9770545898190289,0.5652082645715992,1.279388513932248,0.8197426870599396,0.7706856131291464,0.1559672954390466,1.029179456357794,0.8205921027445228,0.1769408904547443,-0.1680332269906632,0.9095656229592697,0.4195434582917581,755.4945054945055,813.1135531135532,838.0952380952381,764.3589743589744,696.6666666666667,0.219177,0.138611,0.935364,-2.990723,-0.680389,-13.099365,315897.435897,155363516.483516,106874871.794872,72.053658,1,2,1,1,2,40.000000
2025-11-11 12:29:50.027,,,,,,,,,,,,,,,,,,,,,,,,,,,,,,,,,,,,,,,,,,/muse/elements/blink
2025-11-11 12:29:50.623,1.701092464550724,0.7402100094100569,1.140523329990622,1.551734031354686,1.315037865791487,0.4423593868083535,1.305319303647117,1.535762142709375,0.9770545898190289,0.265891760664288,1.279388513932248,0.8197426870599396,0.7706856131291464,0.1995821148593346,1.029179456357794,0.8205921027445228,0.1769408904547443,-0.2899390098570704,0.9095656229592697,0.4195434582917581,859.047619047619,855.8241758241759,824.3956043956044,812.7106227106227,697.8754578754579,0.156616,0.208923,0.947083,-6.602020,-6.056213,-15.970459,328791.208791,154503663.003663,105919926.739927,72.053658,1,2,1,1,2,40.000000
2025-11-11 12:29:51.623,1.701092464550724,0.7042559367570006,1.140523329990622,1.551734031354686,1.315037865791487,0.2788424856942517,1.305319303647117,1.535762142709375,0.9770545898190289,0.08991238150663437,1.279388513932248,0.8197426870599396,0.7706856131291464,0.2108738399682344,1.029179456357794,0.8205921027445228,0.1769408904547443,-0.2871532714085852,0.9095656229592697,0.4195434582917581,791.7582417582418,796.1904761904763,859.8534798534798,807.0695970695971,642.6739926739926,0.128174,0.145142,0.992615,-8.830109,-8.045044,-39.013977,328791.208791,154905787.545788,106324468.864469,72.053658,1,2,1,2,2,40.000000
2025-11-11 12:29:52.622,1.15634005691298,0.7042559367570006,1.140523329990622,1.077102323857007,0.8459846217191491,0.2788424856942517,1.305319303647117,1.053773070637832,1.086658379276343,0.08991238150663437,1.279388513932248,1.320682413875693,0.9191313169359882,0.2108738399682344,1.029179456357794,0.9387351548175138,0.6994902665822931,-0.2871532714085852,0.9095656229592697,0.3177835574882674,808.2783882783883,801.4285714285714,806.6666666666667,812.7106227106227,746.2271062271062,0.150757,0.228149,1.002563,-3.192596,2.003784,-13.891907,327985.347985,154999267.399267,106372014.652015,84.438339,1,1,1,1,1,40.000000
2025-11-11 12:29:53.623,0.9571455553160459,0.1093216713108898,1.140523329990622,0.8652152306934828,0.5854279108977832,-0.1630075274686535,1.305319303647117,0.8274408878583217,1.086658379276343,0.09581126406451944,1.279388513932248,1.320682413875693,0.8472349486538981,0.6130612012569235,1.029179456357794,0.867013866934652,0.5610568917680945,-0.1003941640442974,0.9095656229592697,0.2659239712098375,810.6959706959707,790.952380952381,822.7838827838829,819.1575091575091,678.5347985347986,0.223633,0.150818,0.990601,-6.041260,-11.073151,-29.929657,322344.322344,155335311.355311,106571062.271062,99.315216,1,1,1,1,1,40.000000
2025-11-11 12:29:53.882,,,,,,,,,,,,,,,,,,,,,,,,,,,,,,,,,,,,,,,,,,/muse/elements/blink
2025-11-11 12:29:54.623,0.7101884314733594,0.6438280435702359,1.140523329990622,0.3716164230246499,0.3630264552792764,0.123003497766461,1.305319303647117,0.2021113684487671,0.5258691572906475,0.3981166460235568,1.279388513932248,0.4916158842094692,0.693729488812082,0.5609641650396641,1.029179456357794,0.8615752235890489,0.2320398442980157,-0.06792199898986372,0.9095656229592697,0.3170333735561244,805.8608058608058,771.6117216117216,815.1282051282052,833.2600732600733,660.8058608058608,0.429199,0.115356,0.847717,-10.736694,-10.624542,-14.946136,317509.157509,155333699.633700,106563809.523810,99.315216,1,1,1,1,1,40.000000
2025-11-11 12:29:54.903,,,,,,,,,,,,,,,,,,,,,,,,,,,,,,,,,,,,,,,,,,/muse/elements/blink
2025-11-11 12:29:55.623,0.8366493686171403,1.080780170066784,1.140523329990622,0.4152877106116277,0.4008772348962026,0.4807693720376565,1.305319303647117,0.1913604425327751,0.4661270690178572,0.3980865848782269,1.279388513932248,0.3738413903415373,0.6133841494503515,0.3527819081341957,1.029179456357794,0.8856617895855521,0.1979060158051573,-0.1292235852168094,0.9095656229592697,0.3139811589796018,655.5677655677656,821.5750915750916,828.4249084249085,655.9706959706959,636.2271062271062,0.281921,0.213867,0.864746,-14.033966,14.004059,-73.654022,315091.575092,154563296.703297,106264029.304029,99.315216,1,1,1,1,1,40.000000
2025-11-11 12:29:55.692,,,,,,,,,,,,,,,,,,,,,,,,,,,,,,,,,,,,,,,,,,/muse/elements/blink
2025-11-11 12:29:56.118,,,,,,,,,,,,,,,,,,,,,,,,,,,,,,,,,,,,,,,,,,/muse/elements/blink
2025-11-11 12:29:56.458,,,,,,,,,,,,,,,,,,,,,,,,,,,,,,,,,,,,,,,,,,/muse/elements/blink
2025-11-11 12:29:56.623,0.8366493686171403,1.080780170066784,1.140523329990622,0.4152877106116277,0.4008772348962026,0.4807693720376565,1.305319303647117,0.1913604425327751,0.4661270690178572,0.3980865848782269,1.279388513932248,0.3738413903415373,0.6133841494503515,0.3527819081341957,1.029179456357794,0.8856617895855521,0.1979060158051573,-0.1292235852168094,0.9095656229592697,0.3139811589796018,815.1282051282052,821.5750915750916,709.1575091575091,803.4432234432235,646.7032967032967,0.229919,0.072510,0.958679,-2.631836,-30.662384,-25.712738,317509.157509,154402124.542125,106367985.347985,99.315216,1,2,1,1,2,40.000000
2025-11-11 12:29:57.622,0.8366493686171403,0.8260634374925557,1.140523329990622,0.4152877106116277,0.4008772348962026,0.284770203220813,1.305319303647117,0.1913604425327751,0.4661270690178572,0.4228642801286088,1.279388513932248,0.3738413903415373,0.6133841494503515,0.2301667120813891,1.029179456357794,0.8856617895855521,0.1979060158051573,-0.06528489705104393,0.9095656229592697,0.3139811589796018,810.2930402930403,813.5164835164835,810.2930402930403,814.7252747252747,614.8717948717949,0.213257,0.182983,0.907349,-6.392670,-5.256195,-25.413666,324761.904762,154997655.677656,106618608.058608,99.315216,1,2,1,1,2,40.000000
2025-11-11 12:29:58.623,0.8714908190648305,0.6932310594507981,1.140523329990622,0.4152877106116277,0.6578215926052554,0.3328058369050724,1.305319303647117,0.1913604425327751,0.9801082469320581,0.5491316960029606,1.279388513932248,0.3738413903415373,0.585019795946785,0.2558400352391758,1.029179456357794,0.8856617895855521,0.3952512677699981,-0.09242520153441272,0.9095656229592697,0.3139811589796018,803.4432234432235,798.6080586080586,774.4322344322345,792.5641025641025,646.7032967032967,0.233093,0.133240,0.957581,0.261688,0.007477,-3.155212,327985.347985,155181391.941392,106582344.322344,99.315216,1,1,1,2,1,40.000000
2025-11-11 12:29:58.657,,,,,,,,,,,,,,,,,,,,,,,,,,,,,,,,,,,,,,,,,,/muse/elements/blink
2025-11-11 12:29:59.083,,,,,,,,,,,,,,,,,,,,,,,,,,,,,,,,,,,,,,,,,,/muse/elements/blink
2025-11-11 12:29:59.487,,,,,,,,,,,,,,,,,,,,,,,,,,,,,,,,,,,,,,,,,,/muse/elements/blink
2025-11-11 12:29:59.624,0.2336064330060891,0.6477822015446593,1.140523329990622,0.4152877106116277,0.5039391543447482,0.1511394783774933,1.305319303647117,0.1913604425327751,0.7445435942952069,0.5879838007759073,1.279388513932248,0.3738413903415373,0.5760436230585593,0.1723057997514366,1.029179456357794,0.8856617895855521,0.2780396277908096,-0.1865729794788321,0.9095656229592697,0.3139811589796018,801.025641025641,782.893772893773,618.4981684981685,800.6227106227107,644.2857142857143,0.077942,0.176208,1.015259,-2.033691,0.388794,16.007843,343296.703297,154333626.373626,105820000.000000,97.236534,1,1,1,4,1,40.000000
2025-11-11 12:30:00.623,0.2336064330060891,1.0770683729585,1.140523329990622,0.4152877106116277,0.5039391543447482,0.7125405692247938,1.305319303647117,0.1913604425327751,0.7445435942952069,0.7760294508750636,1.279388513932248,0.3738413903415373,0.5760436230585593,0.354067564462554,1.029179456357794,0.8856617895855521,0.2780396277908096,-0.1307760977814812,0.9095656229592697,0.3139811589796018,812.3076923076924,812.3076923076924,948.901098901099,816.7399267399268,784.1025641025641,0.201660,0.170471,1.016907,2.557068,-7.551575,5.405731,377142.857143,154838095.238095,106807179.487179,89.065643,1,1,1,4,1,40.000000
2025-11-11 12:30:00.890,,,,,,,,,,,,,,,,,,,,,,,,,,,,,,,,,,,,,,,,,,/muse/elements/blink
2025-11-11 12:30:01.317,,,,,,,,,,,,,,,,,,,,,,,,,,,,,,,,,,,,,,,,,,/muse/elements/blink
2025-11-11 12:30:01.631,0.2336064330060891,1.177213380513754,1.140523329990622,0.4152877106116277,0.5039391543447482,0.9358930212405737,1.305319303647117,0.1913604425327751,0.7445435942952069,0.7952246646441974,1.279388513932248,0.3738413903415373,0.5760436230585593,0.5713210200265979,1.029179456357794,0.8856617895855521,0.2780396277908096,-0.05590957683413043,0.9095656229592697,0.3139811589796018,797.3992673992674,801.025641025641,720.4395604395604,781.2820512820513,713.5897435897436,0.042480,0.096436,0.903564,4.029999,8.703003,29.510956,491575.091575,155307912.087912,108206959.706960,84.991455,1,2,1,4,2,40.000000
2025-11-11 12:30:02.581,,,,,,,,,,,,,,,,,,,,,,,,,,,,,,,,,,,,,,,,,,/muse/elements/blink
2025-11-11 12:30:02.623,0.2336064330060891,1.111148830023814,1.140523329990622,0.4152877106116277,0.5039391543447482,0.8832942693231194,1.305319303647117,0.1913604425327751,0.7445435942952069,0.6680299567394227,1.279388513932248,0.3738413903415373,0.5760436230585593,0.6375707259361458,1.029179456357794,0.8856617895855521,0.2780396277908096,0.00104534095879476,0.9095656229592697,0.3139811589796018,796.1904761904763,818.3516483516484,791.7582417582418,807.8754578754579,620.1098901098901,0.188171,0.200806,0.952332,1.988831,8.052521,31.282959,555238.095238,155526300.366300,108137655.677656,79.095032,1,2,1,1,2,40.000000
2025-11-11 12:30:02.730,,,,,,,,,,,,,,,,,,,,,,,,,,,,,,,,,,,,,,,,,,/muse/elements/blink
2025-11-11 12:30:03.433,,,,,,,,,,,,,,,,,,,,,,,,,,,,,,,,,,,,,,,,,,/muse/elements/blink
2025-11-11 12:30:03.624,0.2336064330060891,1.111148830023814,1.140523329990622,0.4152877106116277,0.5039391543447482,0.8832942693231194,1.305319303647117,0.1913604425327751,0.7445435942952069,0.6680299567394227,1.279388513932248,0.3738413903415373,0.5760436230585593,0.6375707259361458,1.029179456357794,0.8856617895855521,0.2780396277908096,0.00104534095879476,0.9095656229592697,0.3139811589796018,848.974358974359,811.5018315018315,746.2271062271062,831.6483516483516,774.8351648351648,0.184448,0.119873,0.977966,5.069275,-5.644989,27.484741,348131.868132,156540073.260073,109094212.454212,76.087234,1,2,1,4,2,40.000000
2025-11-11 12:30:04.479,,,,,,,,,,,,,,,,,,,,,,,,,,,,,,,,,,,,,,,,,,/muse/elements/blink
2025-11-11 12:30:04.623,0.2336064330060891,0.3175186388203407,1.140523329990622,0.4152877106116277,0.5039391543447482,0.2815535335423493,1.305319303647117,0.1913604425327751,0.7445435942952069,0.3374401620254087,1.279388513932248,0.3738413903415373,0.5760436230585593,0.3679611105232471,1.029179456357794,0.8856617895855521,0.2780396277908096,0.0227482028173971,0.9095656229592697,0.3139811589796018,718.4249084249085,740.1831501831502,783.6996336996338,748.2417582417582,690.2197802197802,0.210083,0.271057,0.921082,5.203857,-1.248627,32.785797,318315.018315,156061391.941392,108796849.816850,76.087234,1,2,1,1,2,40.000000
2025-11-11 12:30:04.839,,,,,,,,,,,,,,,,,,,,,,,,,,,,,,,,,,,,,,,,,,/muse/elements/blink
2025-11-11 12:30:05.351,,,,,,,,,,,,,,,,,,,,,,,,,,,,,,,,,,,,,,,,,,/muse/elements/blink
2025-11-11 12:30:05.623,0.2336064330060891,0.2704982111772419,1.140523329990622,0.4152877106116277,0.5039391543447482,0.2663321327040641,1.305319303647117,0.1913604425327751,0.7445435942952069,0.3473735344999967,1.279388513932248,0.3738413903415373,0.5760436230585593,0.3702210643758413,1.029179456357794,0.8856617895855521,0.2780396277908096,0.01726133123978537,0.9095656229592697,0.3139811589796018,815.1282051282052,794.981684981685,763.5531135531136,807.4725274725275,549.1941391941392,0.232910,0.124695,0.983765,7.005768,-3.416901,20.501404,322344.322344,156587619.047619,109230402.930403,72.721565,1,2,1,2,2,40.000000
2025-11-11 12:30:06.570,,,,,,,,,,,,,,,,,,,,,,,,,,,,,,,,,,,,,,,,,,/muse/elements/blink
2025-11-11 12:30:06.623,0.2336064330060891,1.077866085764125,1.140523329990622,0.4152877106116277,0.5039391543447482,0.5297407005541882,1.305319303647117,0.1913604425327751,0.7445435942952069,0.5783743522863429,1.279388513932248,0.3738413903415373,0.5760436230585593,0.3961706046922594,1.029179456357794,0.8856617895855521,0.2780396277908096,0.03866803215869161,0.9095656229592697,0.3139811589796018,807.8754578754579,803.040293040293,786.9230769230769,812.7106227106227,635.4212454212454,0.272095,0.238586,0.993347,9.114227,13.076935,38.647614,326373.626374,156106520.146520,108962857.142857,67.747528,1,2,1,2,2,40.000000
2025-11-11 12:30:06.889,,,,,,,,,,,,,,,,,,,,,,,,,,,,,,,,,,,,,,,,,,/muse/elements/blink
2025-11-11 12:30:07.187,,,,,,,,,,,,,,,,,,,,,,,,,,,,,,,,,,,,,,,,,,/muse/elements/blink
2025-11-11 12:30:07.623,0.2336064330060891,1.508837607048924,1.140523329990622,0.4152877106116277,0.5039391543447482,1.080043022996248,1.305319303647117,0.1913604425327751,0.7445435942952069,0.8001377847949452,1.279388513932248,0.3738413903415373,0.5760436230585593,0.3644955708969114,1.029179456357794,0.8856617895855521,0.2780396277908096,-0.2543955268911328,0.9095656229592697,0.3139811589796018,804.6520146520147,792.967032967033,730.1098901098901,818.7545787545788,1052.857142857143,0.166565,0.200745,0.959900,8.643188,10.460052,7.970276,330402.930403,155089523.809524,108082857.142857,67.747528,1,2,1,2,2,40.000000
2025-11-11 12:30:08.404,,,,,,,,,,,,,,,,,,,,,,,,,,,,,,,,,,,,,,,,,,/muse/elements/blink
2025-11-11 12:30:08.623,0.2336064330060891,1.143107975048865,1.140523329990622,0.4152877106116277,0.5039391543447482,0.776014966954497,1.305319303647117,0.1913604425327751,0.7445435942952069,0.7423274772184449,1.279388513932248,0.3738413903415373,0.5760436230585593,0.5282621219859104,1.029179456357794,0.8856617895855521,0.2780396277908096,0.1108249657700402,0.9095656229592697,0.3139811589796018,807.8754578754579,811.9047619047619,805.8608058608058,797.3992673992674,589.0842490842491,0.131714,0.237610,1.000000,-1.450500,7.028198,30.071716,335238.095238,155647985.347985,108443882.783883,67.747528,1,2,1,1,2,40.000000
2025-11-11 12:30:09.625,0.2336064330060891,0.7504232592816483,1.140523329990622,0.4152877106116277,0.5039391543447482,0.615457484101504,1.305319303647117,0.1913604425327751,0.7445435942952069,0.6368375998636778,1.279388513932248,0.3738413903415373,0.5760436230585593,0.5821235886355254,1.029179456357794,0.8856617895855521,0.2780396277908096,0.1541986774234482,0.9095656229592697,0.3139811589796018,807.4725274725275,802.2344322344322,838.4981684981685,783.6996336996338,620.9157509157509,0.239258,0.198364,0.970093,-0.837402,-3.035583,3.461761,332014.652015,156394212.454212,109194139.194139,67.968079,1,2,1,1,2,40.000000
2025-11-11 12:30:09.723,,,,,,,,,,,,,,,,,,,,,,,,,,,,,,,,,,,,,,,,,,/muse/elements/blink
2025-11-11 12:30:10.622,0.2336064330060891,0.5302236503068561,1.140523329990622,0.4152877106116277,0.5039391543447482,0.2179530731880059,1.305319303647117,0.1913604425327751,0.7445435942952069,0.2707833300064246,1.279388513932248,0.3738413903415373,0.5760436230585593,0.1047114783692845,1.029179456357794,0.8856617895855521,0.2780396277908096,0.1309273746202254,0.9095656229592697,0.3139811589796018,772.4175824175825,781.6849816849817,788.5347985347986,790.5494505494506,915.0549450549451,0.264771,0.106323,0.944092,-0.560760,-0.545807,6.886139,325567.765568,156400659.340659,109198974.358974,68.120621,1,2,1,1,2,40.000000
2025-11-11 12:30:10.856,,,,,,,,,,,,,,,,,,,,,,,,,,,,,,,,,,,,,,,,,,/muse/elements/blink
2025-11-11 12:30:11.175,,,,,,,,,,,,,,,,,,,,,,,,,,,,,,,,,,,,,,,,,,/muse/elements/blink
2025-11-11 12:30:11.346,,,,,,,,,,,,,,,,,,,,,,,,,,,,,,,,,,,,,,,,,,/muse/elements/blink
2025-11-11 12:30:11.623,0.2336064330060891,0.6931309461575998,1.140523329990622,0.4152877106116277,0.5039391543447482,0.196806874339401,1.305319303647117,0.1913604425327751,0.7445435942952069,0.3269455235648768,1.279388513932248,0.3738413903415373,0.5760436230585593,0.1166632243651252,1.029179456357794,0.8856617895855521,0.2780396277908096,0.05598033154120703,0.9095656229592697,0.3139811589796018,811.9047619047619,812.3076923076924,835.2747252747253,816.3369963369963,626.5567765567765,0.311340,0.228516,0.928162,-6.108551,-14.833984,-54.535828,324761.904762,156024322.344322,108810549.450549,68.120621,1,2,1,1,2,40.000000
2025-11-11 12:30:12.623,0.2336064330060891,0.8917581494958584,1.140523329990622,0.4152877106116277,0.5039391543447482,0.2355001437899004,1.305319303647117,0.1913604425327751,0.7445435942952069,0.1068953468744075,1.279388513932248,0.3738413903415373,0.5760436230585593,0.1734050444794918,1.029179456357794,0.8856617895855521,0.2780396277908096,-0.02183511657815393,0.9095656229592697,0.3139811589796018,788.1318681318681,757.5091575091575,859.4505494505495,829.2307692307693,747.032967032967,0.185059,0.126221,0.928772,-1.659851,-1.039276,-26.968842,323956.043956,156153260.073260,109002344.322344,68.120621,1,2,1,1,2,40.000000
2025-11-11 12:30:12.687,,,,,,,,,,,,,,,,,,,,,,,,,,,,,,,,,,,,,,,,,,/muse/elements/blink
2025-11-11 12:30:13.623,0.2336064330060891,0.8917581494958584,1.140523329990622,0.4152877106116277,0.5039391543447482,0.2355001437899004,1.305319303647117,0.1913604425327751,0.7445435942952069,0.1068953468744075,1.279388513932248,0.3738413903415373,0.5760436230585593,0.1734050444794918,1.029179456357794,0.8856617895855521,0.2780396277908096,-0.02183511657815393,0.9095656229592697,0.3139811589796018,768.7912087912088,799.8168498168499,743.0036630036631,771.6117216117216,986.3736263736264,0.229309,0.194702,0.906433,-5.398254,-8.755341,-25.937042,323956.043956,156655311.355311,109373040.293040,76.146500,1,2,1,1,2,40.000000
2025-11-11 12:30:13.816,,,,,,,,,,,,,,,,,,,,,,,,,,,,,,,,,,,,,,,,,,/muse/elements/blink
2025-11-11 12:30:14.116,,,,,,,,,,,,,,,,,,,,,,,,,,,,,,,,,,,,,,,,,,/muse/elements/blink
2025-11-11 12:30:14.623,0.2336064330060891,0.8917581494958584,1.140523329990622,0.4152877106116277,0.5039391543447482,0.2355001437899004,1.305319303647117,0.1913604425327751,0.7445435942952069,0.1068953468744075,1.279388513932248,0.3738413903415373,0.5760436230585593,0.1734050444794918,1.029179456357794,0.8856617895855521,0.2780396277908096,-0.02183511657815393,0.9095656229592697,0.3139811589796018,799.8168498168499,801.025641025641,852.6007326007326,818.7545787545788,648.3150183150183,0.118652,0.160095,0.988525,-2.915955,1.256104,-38.737335,326373.626374,155435238.095238,108154578.754579,80.678436,1,2,1,1,2,40.000000
2025-11-11 12:30:15.623,0.2336064330060891,0.8917581494958584,1.140523329990622,0.4152877106116277,0.5039391543447482,0.2355001437899004,1.305319303647117,0.1913604425327751,0.7445435942952069,0.1068953468744075,1.279388513932248,0.3738413903415373,0.5760436230585593,0.1734050444794918,1.029179456357794,0.8856617895855521,0.2780396277908096,-0.02183511657815393,0.9095656229592697,0.3139811589796018,821.5750915750916,788.9377289377289,816.7399267399268,839.7069597069598,716.007326007326,0.141846,0.199402,0.989075,-3.947754,-5.809479,-15.529327,323150.183150,155896190.476190,108208571.428571,80.678436,1,2,1,1,2,40.000000
2025-11-11 12:30:16.330,,,,,,,,,,,,,,,,,,,,,,,,,,,,,,,,,,,,,,,,,,/muse/elements/blink
2025-11-11 12:30:16.623,0.2336064330060891,0.8904039787422163,1.140523329990622,1.432926165950503,0.5039391543447482,0.7175815137189463,1.305319303647117,1.077940993749313,0.7445435942952069,0.6767807291134442,1.279388513932248,0.9842966072675811,0.5760436230585593,0.6294477402501935,1.029179456357794,0.7116526264756113,0.2780396277908096,0.2234925912508346,0.9095656229592697,0.6448953954573465,804.2490842490843,802.2344322344322,669.6703296703297,814.7252747252747,903.3699633699634,0.256470,0.104248,1.001221,-7.140350,-14.990997,-30.213776,316703.296703,156640000.000000,109172380.952381,80.678436,1,1,1,1,1,40.000000
2025-11-11 12:30:17.623,0.2336064330060891,1.250219603809179,1.140523329990622,1.570780564331623,0.5039391543447482,0.8506428987478094,1.305319303647117,1.220418928377331,0.7445435942952069,0.7288266977750968,1.279388513932248,0.9743022126461623,0.5760436230585593,0.5840282948637935,1.029179456357794,0.7195289699665743,0.2780396277908096,0.1017036231248613,0.9095656229592697,0.6553006905252737,843.3333333333334,792.5641025641025,861.0622710622711,863.8827838827839,612.8571428571429,0.318665,0.212708,0.976257,-2.796326,-0.448608,-5.809479,317509.157509,156563443.223443,109014432.234432,80.678436,1,1,1,1,1,40.000000
2025-11-11 12:30:18.244,,,,,,,,,,,,,,,,,,,,,,,,,,,,,,,,,,,,,,,,,,/muse/elements/blink
2025-11-11 12:30:18.585,,,,,,,,,,,,,,,,,,,,,,,,,,,,,,,,,,,,,,,,,,/muse/elements/blink
2025-11-11 12:30:18.623,1.289621645342258,1.223433306958628,1.140523329990622,1.570780564331623,0.720122055619364,0.9717613062757253,1.305319303647117,1.220418928377331,1.174442458249464,0.8060412292215007,1.279388513932248,0.9743022126461623,0.6772002759510778,0.3416842791445203,1.029179456357794,0.7195289699665743,0.2601548248330974,-0.2288262291063202,0.9095656229592697,0.6553006905252737,818.7545787545788,815.1282051282052,685.7875457875458,822.7838827838829,723.2600732600732,0.256104,0.181030,0.908020,-10.460052,-5.630035,-32.830658,316703.296703,155985641.025641,108604249.084249,80.112534,1,1,1,1,1,40.000000
2025-11-11 12:30:19.623,1.393482924245767,1.133374303760664,1.140523329990622,1.570780564331623,0.6519129237469172,1.02994754632012,1.305319303647117,1.220418928377331,0.6601746284404018,0.8286950905139541,1.279388513932248,0.9743022126461623,0.7592386834799617,0.2243640050161848,1.029179456357794,0.7195289699665743,0.2963813426245798,-0.2824000393470342,0.9095656229592697,0.6553006905252737,806.6666666666667,815.5311355311355,766.3736263736264,817.5457875457876,792.967032967033,0.134705,0.099182,0.980225,-6.332855,12.344208,-16.957397,322344.322344,155839780.219780,108697728.937729,79.688072,1,1,1,1,1,40.000000
2025-11-11 12:30:20.502,,,,,,,,,,,,,,,,,,,,,,,,,,,,,,,,,,,,,,,,,,/muse/elements/blink
2025-11-11 12:30:20.623,1.781944756296463,1.133374303760664,1.140523329990622,1.758037638322405,1.215394337636154,1.02994754632012,1.305319303647117,1.342247324570654,1.118549953332844,0.8286950905139541,1.279388513932248,1.150907050108398,0.9211063286707782,0.2243640050161848,1.029179456357794,0.7054758258957439,0.4217720769715005,-0.2824000393470342,0.9095656229592697,0.3665350867334056,807.8754578754579,795.7875457875458,774.4322344322345,803.8461538461539,530.2564102564103,0.206665,0.207336,0.971741,-1.629944,-15.716248,-17.959290,331208.791209,155185421.245421,108386666.666667,78.803589,1,1,1,1,1,40.000000
2025-11-11 12:30:21.523,,,,,,,,,,,,,,,,,,,,,,,,,,,,,,,,,,,,,,,,,,/muse/elements/blink
2025-11-11 12:30:21.623,1.873385557576609,0.6013422615504648,1.140523329990622,1.799468011510854,1.315505601364479,0.2224438063552817,1.305319303647117,1.399519342496885,1.103540073477284,0.3633049867508367,1.279388513932248,1.131768926214454,0.9868053888495143,0.08186186304204474,1.029179456357794,0.7161462889574446,0.4839195186373437,0.08534493363564057,0.9095656229592697,0.3793178714436789,736.959706959707,826.8131868131868,806.2637362637363,740.989010989011,806.2637362637363,0.200195,0.135681,0.955322,6.736603,-3.461761,3.790741,340879.120879,155390109.890110,108595384.615385,78.223656,1,1,1,1,1,40.000000
2025-11-11 12:30:21.805,,,,,,,,,,,,,,,,,,,,,,,,,,,,,,,,,,,,,,,,,,/muse/elements/blink
2025-11-11 12:30:22.627,1.873385557576609,0.234723850237766,1.140523329990622,1.799468011510854,1.315505601364479,-0.1466369829464673,1.305319303647117,1.399519342496885,1.103540073477284,0.01398532119122174,1.279388513932248,1.131768926214454,0.9868053888495143,-0.04934632447036921,1.029179456357794,0.7161462889574446,0.4839195186373437,-0.1731629488859332,0.9095656229592697,0.3793178714436789,789.3406593406594,810.6959706959707,747.8388278388279,790.5494505494506,840.5128205128206,0.206116,0.197632,0.927795,2.265472,-9.712372,13.607788,362637.362637,155784981.684982,108958827.838828,78.223656,1,1,1,1,1,40.000000
2025-11-11 12:30:23.623,1.873385557576609,0.2611917272406565,1.140523329990622,1.799468011510854,1.315505601364479,-0.1094490596774125,1.305319303647117,1.399519342496885,1.103540073477284,-0.0509556863279531,1.279388513932248,1.131768926214454,0.9868053888495143,-0.0457946698650733,1.029179456357794,0.7161462889574446,0.4839195186373437,-0.2104676228738388,0.9095656229592697,0.3793178714436789,819.5604395604396,801.8315018315019,853.0036630036631,824.3956043956044,609.2307692307693,0.249268,0.143677,0.983398,2.033691,4.620667,11.446991,409377.289377,155824468.864469,108962051.282051,78.223656,1,2,1,1,2,40.000000
2025-11-11 12:30:23.875,,,,,,,,,,,,,,,,,,,,,,,,,,,,,,,,,,,,,,,,,,/muse/elements/blink
2025-11-11 12:30:24.132,,,,,,,,,,,,,,,,,,,,,,,,,,,,,,,,,,,,,,,,,,/muse/elements/blink
2025-11-11 12:30:24.622,1.873385557576609,0.9628362269363583,1.140523329990622,1.799468011510854,1.315505601364479,0.5542682244746179,1.305319303647117,1.399519342496885,1.103540073477284,0.4741039115810918,1.279388513932248,1.131768926214454,0.9868053888495143,0.4447092282337754,1.029179456357794,0.7161462889574446,0.4839195186373437,-0.09185784090870733,0.9095656229592697,0.3793178714436789,809.4871794871796,813.5164835164835,808.6813186813187,802.2344322344322,783.6996336996338,0.130859,0.198303,1.066406,3.065491,5.046844,32.008209,573772.893773,155622197.802198,108848424.908425,78.593719,1,2,1,1,2,40.000000
2025-11-11 12:30:25.623,1.873385557576609,0.7395947693653866,1.140523329990622,1.799468011510854,1.315505601364479,0.5162199749440126,1.305319303647117,1.399519342496885,1.103540073477284,0.6325649436138361,1.279388513932248,1.131768926214454,0.9868053888495143,0.3567467276688875,1.029179456357794,0.7161462889574446,0.4839195186373437,0.0005139990770591661,0.9095656229592697,0.3793178714436789,892.4908424908425,752.6739926739926,954.1391941391942,893.6996336996338,761.941391941392,0.221313,0.196777,0.961121,6.071167,-3.058014,24.710846,342490.842491,156387765.567766,109372234.432234,77.931648,1,2,1,1,2,40.000000
2025-11-11 12:30:25.688,,,,,,,,,,,,,,,,,,,,,,,,,,,,,,,,,,,,,,,,,,/muse/elements/blink
2025-11-11 12:30:26.622,1.873385557576609,0.6563133946929679,1.140523329990622,1.799468011510854,1.315505601364479,0.3392796590602232,1.305319303647117,1.399519342496885,1.103540073477284,0.4925606956870362,1.279388513932248,1.131768926214454,0.9868053888495143,0.193504864987305,1.029179456357794,0.7161462889574446,0.4839195186373437,0.002139300536102372,0.9095656229592697,0.3793178714436789,794.5787545787546,801.8315018315019,776.8498168498169,809.4871794871796,554.4322344322344,0.255920,0.055969,0.929626,6.422577,-9.398346,25.032349,319926.739927,156584395.604396,109615604.395604,74.305359,1,2,1,1,2,40.000000
2025-11-11 12:30:27.390,,,,,,,,,,,,,,,,,,,,,,,,,,,,,,,,,,,,,,,,,,/muse/elements/blink
2025-11-11 12:30:27.623,1.873385557576609,0.9807722431273084,1.140523329990622,1.799468011510854,1.315505601364479,0.6482594596420355,1.305319303647117,1.399519342496885,1.103540073477284,0.3902602609551445,1.279388513932248,1.131768926214454,0.9868053888495143,0.2484277196278412,1.029179456357794,0.7161462889574446,0.4839195186373437,-0.3721687929140987,0.9095656229592697,0.3793178714436789,821.978021978022,813.919413919414,720.4395604395604,817.948717948718,1280.915750915751,0.179810,0.167236,0.934265,7.850647,9.360962,29.451141,321538.461538,156240293.040293,109315824.175824,74.305359,1,2,1,1,2,40.000000
2025-11-11 12:30:27.920,,,,,,,,,,,,,,,,,,,,,,,,,,,,,,,,,,,,,,,,,,/muse/elements/blink
2025-11-11 12:30:28.630,1.873385557576609,1.20247914728297,1.140523329990622,1.799468011510854,1.315505601364479,0.8886742627316208,1.305319303647117,1.399519342496885,1.103540073477284,0.8745959801131254,1.279388513932248,1.131768926214454,0.9868053888495143,0.3120739812999196,1.029179456357794,0.7161462889574446,0.4839195186373437,-0.2063611844838835,0.9095656229592697,0.3793178714436789,809.4871794871796,813.5164835164835,782.4908424908425,795.3846153846154,656.3736263736264,0.115295,0.091003,0.957092,3.050537,-6.415100,17.525635,329597.069597,155808351.648352,109096630.036630,74.305359,1,2,1,1,2,40.000000
2025-11-11 12:30:29.111,,,,,,,,,,,,,,,,,,,,,,,,,,,,,,,,,,,,,,,,,,/muse/elements/blink
2025-11-11 12:30:29.623,1.873385557576609,1.032095275139469,1.140523329990622,1.799468011510854,1.315505601364479,0.7976568602548089,1.305319303647117,1.399519342496885,1.103540073477284,0.8979116767856195,1.279388513932248,1.131768926214454,0.9868053888495143,0.3508208504523324,1.029179456357794,0.7161462889574446,0.4839195186373437,-0.07498342722058146,0.9095656229592697,0.3793178714436789,886.8498168498169,754.2857142857143,853.8095238095239,909.4139194139194,669.6703296703297,0.159668,0.183960,0.997192,10.026398,5.136566,48.449707,334432.234432,155976776.556777,109137728.937729,74.305359,1,2,1,4,2,40.000000
2025-11-11 12:30:29.665,,,,,,,,,,,,,,,,,,,,,,,,,,,,,,,,,,,,,,,,,,/muse/elements/blink
2025-11-11 12:30:30.622,1.873385557576609,0.6974349934170544,1.140523329990622,1.799468011510854,1.315505601364479,-0.1108479576313156,1.305319303647117,1.399519342496885,1.103540073477284,0.7230180064471071,1.279388513932248,1.131768926214454,0.9868053888495143,0.1303322126243253,1.029179456357794,0.7161462889574446,0.4839195186373437,0.04088423916300644,0.9095656229592697,0.3793178714436789,817.1428571428571,792.1611721611722,814.3223443223443,814.3223443223443,856.6300366300367,0.210571,0.153931,1.114380,1.016846,-4.643097,12.486267,336043.956044,156490915.750916,109469743.589744,74.305359,1,2,1,1,2,40.000000
2025-11-11 12:30:31.043,,,,,,,,,,,,,,,,,,,,,,,,,,,,,,,,,,,,,,,,,,/muse/elements/blink
2025-11-11 12:30:31.624,1.873385557576609,1.036760171338135,1.140523329990622,1.799468011510854,1.315505601364479,-0.1086494362710095,1.305319303647117,1.399519342496885,1.103540073477284,0.3926912941696086,1.279388513932248,1.131768926214454,0.9868053888495143,0.08619954574507435,1.029179456357794,0.7161462889574446,0.4839195186373437,-0.2596103231708284,0.9095656229592697,0.3793178714436789,815.1282051282052,797.8021978021978,662.4175824175825,809.8901098901099,709.9633699633699,0.224609,0.076660,0.962463,3.439331,6.437531,3.581390,328791.208791,155872820.512821,108876630.036630,74.855888,1,2,1,1,2,40.000000
2025-11-11 12:30:31.637,,,,,,,,,,,,,,,,,,,,,,,,,,,,,,,,,,,,,,,,,,/muse/elements/blink
2025-11-11 12:30:32.623,1.873385557576609,1.29277544170094,1.140523329990622,1.799468011510854,1.315505601364479,0.5262285119987805,1.305319303647117,1.399519342496885,1.103540073477284,0.5103253793908932,1.279388513932248,1.131768926214454,0.9868053888495143,0.2067359666967952,1.029179456357794,0.7161462889574446,0.4839195186373437,-0.3326266253391584,0.9095656229592697,0.3793178714436789,807.0695970695971,838.901098901099,800.6227106227107,808.6813186813187,670.8791208791209,0.300659,0.181824,0.929443,-7.372131,-28.606262,-20.665894,321538.461538,156035604.395604,108853260.073260,75.391930,1,2,1,1,2,40.000000
2025-11-11 12:30:33.623,1.192908840342357,1.343445907902672,1.140523329990622,1.799468011510854,1.207730624586403,0.6042587509527532,1.305319303647117,1.399519342496885,0.8453133296921366,0.4827791835589121,1.279388513932248,1.131768926214454,0.7090677549802106,0.2325843293278675,1.029179456357794,0.7161462889574446,0.3580965605974619,-0.3507062919498907,0.9095656229592697,0.3793178714436789,748.6446886446887,812.7106227106227,758.7179487179487,763.1501831501831,1021.428571428571,0.258179,0.124329,0.937439,-5.084229,-9.218903,-24.583740,315897.435897,156525567.765568,109386739.926740,75.404816,1,1,1,1,1,40.000000
2025-11-11 12:30:34.623,1.037684688149895,1.023186877458591,1.140523329990622,1.799468011510854,1.279720210544312,0.7475412976276379,1.305319303647117,1.399519342496885,0.6464974827024811,0.4711205456312436,1.279388513932248,1.131768926214454,0.7540000101787677,0.3279814769435783,1.029179456357794,0.7161462889574446,0.3480836701247843,-0.152825581320803,0.9095656229592697,0.3793178714436789,805.8608058608058,798.2051282051282,808.6813186813187,814.3223443223443,620.5128205128206,0.341125,0.207703,0.960144,-11.260071,4.598236,-20.045319,320732.600733,156634358.974359,109344029.304029,75.404816,1,1,1,1,1,40.000000
2025-11-11 12:30:35.210,,,,,,,,,,,,,,,,,,,,,,,,,,,,,,,,,,,,,,,,,,/muse/elements/blink
2025-11-11 12:30:35.442,,,,,,,,,,,,,,,,,,,,,,,,,,,,,,,,,,,,,,,,,,/muse/elements/blink
2025-11-11 12:30:35.623,1.037684688149895,0.809124659257502,1.140523329990622,1.799468011510854,1.279720210544312,0.4875395579977236,1.305319303647117,1.399519342496885,0.6464974827024811,0.6352208775486347,1.279388513932248,1.131768926214454,0.7540000101787677,0.3403413551276843,1.029179456357794,0.7161462889574446,0.3480836701247843,-0.2267388541061877,0.9095656229592697,0.3793178714436789,806.2637362637363,780.8791208791209,825.2014652014652,832.8571428571429,694.2490842490843,0.285645,0.162231,0.966064,-8.882446,4.635620,-34.625092,325567.765568,156608571.428571,109211062.271062,75.404816,1,1,1,1,1,40.000000
2025-11-11 12:30:36.336,,,,,,,,,,,,,,,,,,,,,,,,,,,,,,,,,,,,,,,,,,/muse/elements/blink
2025-11-11 12:30:36.623,1.037684688149895,1.01577442609338,1.140523329990622,1.799468011510854,1.279720210544312,0.891063092549245,1.305319303647117,1.399519342496885,0.6464974827024811,0.5943771978826445,1.279388513932248,1.131768926214454,0.7540000101787677,0.3590793827049379,1.029179456357794,0.7161462889574446,0.3480836701247843,-0.05288590404667858,0.9095656229592697,0.3793178714436789,811.0989010989011,824.7985347985348,1152.380952380953,826.4102564102565,977.1062271062272,0.093933,0.176575,1.064148,-5.398254,17.121887,-33.159637,326373.626374,154628571.428571,107530036.630037,73.210999,1,2,1,1,2,40.000000
2025-11-11 12:30:37.631,1.037684688149895,1.099863538652827,1.140523329990622,1.799468011510854,1.279720210544312,1.109290199500777,1.305319303647117,1.399519342496885,0.6464974827024811,0.4832592229744455,1.279388513932248,1.131768926214454,0.7540000101787677,0.4470034660622921,1.029179456357794,0.7161462889574446,0.3480836701247843,0.1344111176466935,0.9095656229592697,0.3793178714436789,789.3406593406594,800.2197802197802,755.8974358974359,778.8644688644689,691.025641025641,0.074097,0.187317,0.969971,-3.798218,-10.803986,-22.452850,314285.714286,155441684.981685,107413992.673993,74.951172,1,2,1,1,2,40.000000
2025-11-11 12:30:38.623,0.4762898247547506,-0.01262036957500167,1.140523329990622,0.03408020405523837,0.4559975347881961,0.114197021075924,1.305319303647117,0.6535335014619502,1.076348914509446,0.4637845191185254,1.279388513932248,1.239524665046651,0.7780976645521052,0.6210070288616842,1.029179456357794,0.9647788058085628,0.5418784010466621,0.4814861557023162,0.9095656229592697,0.9540448977924085,770.8058608058608,792.5641025641025,906.1904761904763,777.6556776556777,708.7545787545788,-0.001587,0.180542,0.967651,5.420685,-12.770386,-27.477264,313479.853480,155259560.439560,107061025.641026,78.068634,1,1,1,1,1,40.000000
2025-11-11 12:30:38.864,,,,,,,,,,,,,,,,,,,,,,,,,,,,,,,,,,,,,,,,,,/muse/elements/blink
2025-11-11 12:30:39.461,,,,,,,,,,,,,,,,,,,,,,,,,,,,,,,,,,,,,,,,,,/muse/elements/blink
2025-11-11 12:30:39.623,0.4963468139654613,-0.389321724806256,1.140523329990622,0.08214559680313932,0.445343696035704,0.1642923748570278,1.305319303647117,0.7903558083333222,0.9379239670901572,0.2503291191784675,1.279388513932248,1.239524665046651,0.7233118022479442,0.5941160116549551,1.029179456357794,0.8982141975484886,0.3408521307129707,0.486023851209179,0.9095656229592697,1.054226179773365,811.9047619047619,792.967032967033,767.5824175824176,817.1428571428571,774.4322344322345,0.122498,0.246277,0.956482,-0.515900,-22.707062,-19.768677,316703.296703,155812380.952381,108102197.802198,78.068634,1,1,1,1,1,40.000000
2025-11-11 12:30:40.626,0.5706218743972664,-0.6839998141485079,1.140523329990622,0.08509043897096505,0.4396983017030917,0.1597274023221935,1.305319303647117,0.8284264120043633,0.9033114587973541,0.2030865484421963,1.279388513932248,1.238281252177327,0.7405905118756391,0.6044638677609261,1.029179456357794,0.8900006719335947,0.3596576927077327,0.5261264221285388,0.9095656229592697,1.115615797200337,793.7728937728938,788.5347985347986,783.6996336996338,786.5201465201466,640.2564102564103,0.259277,0.169556,0.975098,-8.157196,-2.071075,-25.144501,323956.043956,156095238.095238,108933846.153846,78.068634,1,1,1,1,1,40.000000
2025-11-11 12:30:41.405,,,,,,,,,,,,,,,,,,,,,,,,,,,,,,,,,,,,,,,,,,/muse/elements/blink
2025-11-11 12:30:41.626,0.5706218743972664,0.7682211362978013,1.140523329990622,0.08509043897096505,0.4396983017030917,0.4425736212243337,1.305319303647117,0.8284264120043633,0.9033114587973541,0.4937263242506705,1.279388513932248,1.238281252177327,0.7405905118756391,0.3079196431733593,1.029179456357794,0.8900006719335947,0.3596576927077327,-0.1398491147658434,0.9095656229592697,1.115615797200337,771.2087912087912,797.8021978021978,802.6373626373627,777.2527472527473,706.3369963369963,0.340637,0.096436,0.942505,-3.872986,-5.585175,-2.743988,329597.069597,155548864.468864,108704175.824176,78.068634,1,2,1,1,2,40.000000
2025-11-11 12:30:41.809,,,,,,,,,,,,,,,,,,,,,,,,,,,,,,,,,,,,,,,,,,/muse/elements/blink
2025-11-11 12:30:42.000,,,,,,,,,,,,,,,,,,,,,,,,,,,,,,,,,,,,,,,,,,/muse/elements/blink
2025-11-11 12:30:42.627,0.5706218743972664,0.618008040901349,1.140523329990622,0.08509043897096505,0.4396983017030917,0.3630581555383754,1.305319303647117,0.8284264120043633,0.9033114587973541,0.3068571995394644,1.279388513932248,1.238281252177327,0.7405905118756391,0.3626922715053211,1.029179456357794,0.8900006719335947,0.3596576927077327,-0.06446052438633286,0.9095656229592697,1.115615797200337,811.9047619047619,796.1904761904763,761.941391941392,803.8461538461539,899.7435897435897,0.355835,0.252319,0.949097,-0.598145,-16.486359,0.276642,341684.981685,155294212.454212,108418095.238095,78.068634,1,2,1,1,2,40.000000
2025-11-11 12:30:43.630,0.5706218743972664,0.8579263110768114,1.140523329990622,0.08509043897096505,0.4396983017030917,0.06643347689039927,1.305319303647117,0.8284264120043633,0.9033114587973541,0.2290449559722924,1.279388513932248,1.238281252177327,0.7405905118756391,0.4348602559412138,1.029179456357794,0.8900006719335947,0.3596576927077327,-0.03158867945988617,0.9095656229592697,1.115615797200337,805.8608058608058,801.025641025641,798.6080586080586,818.7545787545788,645.8974358974359,0.201172,0.130249,0.950073,1.637421,-3.843079,14.602203,363443.223443,155490842.490842,108732380.952381,75.432945,1,2,1,1,2,40.000000
2025-11-11 12:30:44.256,,,,,,,,,,,,,,,,,,,,,,,,,,,,,,,,,,,,,,,,,,/muse/elements/blink
2025-11-11 12:30:44.623,1.423399660539616,0.9634118062795153,1.140523329990622,1.443622178418734,1.25934819825089,0.5125424019141733,1.305319303647117,1.055383863931957,1.281931280561283,0.6118633189644396,1.279388513932248,1.097337247403754,0.9104150801029883,0.392082402870863,1.029179456357794,1.013691422306225,0.3883956511816098,-0.09503298946139124,0.9095656229592697,0.4332582866457438,815.934065934066,810.2930402930403,831.6483516483516,825.6043956043957,619.3040293040293,0.213257,0.209106,0.924622,6.048737,7.529144,30.953979,430329.670330,155961465.201465,108881465.201465,73.490746,1,1,1,1,1,40.000000
2025-11-11 12:30:44.875,,,,,,,,,,,,,,,,,,,,,,,,,,,,,,,,,,,,,,,,,,/muse/elements/blink
2025-11-11 12:30:45.045,,,,,,,,,,,,,,,,,,,,,,,,,,,,,,,,,,,,,,,,,,/muse/elements/blink
2025-11-11 12:30:45.387,,,,,,,,,,,,,,,,,,,,,,,,,,,,,,,,,,,,,,,,,,/muse/elements/blink
2025-11-11 12:30:45.630,1.469881875702052,0.9669641060113455,1.140523329990622,1.443622178418734,1.368513122794361,0.6451357800178183,1.305319303647117,1.055383863931957,1.344295022934543,0.9373396221863063,1.279388513932248,1.097337247403754,1.019971196968381,0.3496022402360371,1.029179456357794,1.013691422306225,0.4997630218852609,-0.05778844371845486,0.9095656229592697,0.4332582866457438,823.992673992674,803.8461538461539,781.2820512820513,838.4981684981685,942.0512820512821,0.119568,0.114868,1.012268,0.605621,8.493652,11.873169,564908.424908,156055750.915751,108784761.904762,73.443390,1,1,1,2,1,40.000000
2025-11-11 12:30:46.258,,,,,,,,,,,,,,,,,,,,,,,,,,,,,,,,,,,,,,,,,,/muse/elements/blink
2025-11-11 12:30:46.630,1.58290036694325,1.040019590288217,1.140523329990622,1.443622178418734,1.511367643086549,0.7090867420448321,1.305319303647117,1.055383863931957,1.344295022934543,0.9373396221863063,1.279388513932248,1.097337247403754,1.10963216123908,0.3975208072805693,1.029179456357794,1.013691422306225,0.5772302803666757,0.2042632250145378,0.9095656229592697,0.4332582866457438,746.6300366300367,714.3956043956044,870.7326007326008,795.3846153846154,715.2014652014652,0.034363,0.229614,1.022644,5.465546,17.308807,44.928131,361025.641026,156122637.362637,108883076.923077,73.443390,1,1,1,1,1,40.000000
2025-11-11 12:30:46.790,,,,,,,,,,,,,,,,,,,,,,,,,,,,,,,,,,,,,,,,,,/muse/elements/blink
2025-11-11 12:30:47.623,1.58290036694325,1.040019590288217,1.140523329990622,1.443622178418734,1.511367643086549,0.7090867420448321,1.305319303647117,1.055383863931957,1.344295022934543,0.9373396221863063,1.279388513932248,1.097337247403754,1.10963216123908,0.3975208072805693,1.029179456357794,1.013691422306225,0.5772302803666757,0.2042632250145378,0.9095656229592697,0.4332582866457438,815.5311355311355,806.6666666666667,814.3223443223443,814.7252747252747,650.7326007326008,0.025635,0.139465,0.985474,-0.934601,-4.119720,20.254669,319926.739927,155945347.985348,108480146.520147,73.443390,1,2,1,1,2,40.000000
2025-11-11 12:30:47.999,,,,,,,,,,,,,,,,,,,,,,,,,,,,,,,,,,,,,,,,,,/muse/elements/blink
2025-11-11 12:30:48.625,1.58290036694325,1.040019590288217,1.140523329990622,1.443622178418734,1.511367643086549,0.7090867420448321,1.305319303647117,1.055383863931957,1.344295022934543,0.9373396221863063,1.279388513932248,1.097337247403754,1.10963216123908,0.3975208072805693,1.029179456357794,1.013691422306225,0.5772302803666757,0.2042632250145378,0.9095656229592697,0.4332582866457438,807.8754578754579,778.8644688644689,896.1172161172161,813.5164835164835,877.1794871794872,0.186462,0.113159,0.987427,3.058014,-6.003876,49.488983,327179.487179,157005860.805861,109391575.091575,73.443390,1,2,1,1,2,40.000000
2025-11-11 12:30:49.231,,,,,,,,,,,,,,,,,,,,,,,,,,,,,,,,,,,,,,,,,,/muse/elements/blink
2025-11-11 12:30:49.549,,,,,,,,,,,,,,,,,,,,,,,,,,,,,,,,,,,,,,,,,,/muse/elements/blink
2025-11-11 12:30:49.623,1.58290036694325,1.072546013708807,1.140523329990622,1.443622178418734,1.511367643086549,0.58713940304968,1.305319303647117,1.055383863931957,1.344295022934543,0.7265211876804162,1.279388513932248,1.097337247403754,1.10963216123908,0.3565705260832163,1.029179456357794,1.013691422306225,0.5772302803666757,-0.01078905605414344,0.9095656229592697,0.4332582866457438,801.8315018315019,796.1904761904763,804.2490842490843,792.1611721611722,706.3369963369963,0.205872,0.176392,0.946045,0.142059,1.592560,21.121979,331208.791209,156319267.399267,108910476.190476,78.707878,1,2,1,1,2,40.000000
2025-11-11 12:30:50.166,,,,,,,,,,,,,,,,,,,,,,,,,,,,,,,,,,,,,,,,,,/muse/elements/blink
2025-11-11 12:30:50.442,,,,,,,,,,,,,,,,,,,,,,,,,,,,,,,,,,,,,,,,,,/muse/elements/blink
2025-11-11 12:30:50.623,1.58290036694325,1.1345866556456,1.140523329990622,1.443622178418734,1.511367643086549,0.791638594336041,1.305319303647117,1.055383863931957,1.344295022934543,1.009444342399553,1.279388513932248,1.097337247403754,1.10963216123908,0.384663411488167,1.029179456357794,1.013691422306225,0.5772302803666757,-0.00403235888900678,0.9095656229592697,0.4332582866457438,807.0695970695971,816.3369963369963,778.0586080586081,802.2344322344322,640.2564102564103,0.130676,0.121094,0.965698,5.069275,3.043060,37.361603,334432.234432,155523076.923077,108328644.688645,114.181572,1,2,1,1,2,40.000000
2025-11-11 12:30:50.683,,,,,,,,,,,,,,,,,,,,,,,,,,,,,,,,,,,,,,,,,,/muse/elements/blink
2025-11-11 12:30:51.474,,,,,,,,,,,,,,,,,,,,,,,,,,,,,,,,,,,,,,,,,,/muse/elements/blink
2025-11-11 12:30:51.624,1.58290036694325,1.15059989246544,1.140523329990622,1.443622178418734,1.511367643086549,0.5226238746690758,1.305319303647117,1.055383863931957,1.344295022934543,0.5769581739378206,1.279388513932248,1.097337247403754,1.10963216123908,0.3991869468184103,1.029179456357794,1.013691422306225,0.5772302803666757,0.03439583900981918,0.9095656229592697,0.4332582866457438,826.8131868131868,794.981684981685,972.6739926739928,831.2454212454213,684.1758241758242,0.162415,0.218201,0.950439,3.431854,-2.990723,31.499786,335238.095238,156520732.600733,109200586.080586,107.805298,1,2,1,1,2,40.000000
2025-11-11 12:30:52.261,,,,,,,,,,,,,,,,,,,,,,,,,,,,,,,,,,,,,,,,,,/muse/elements/blink
2025-11-11 12:30:52.624,1.58290036694325,1.215334223661564,1.140523329990622,1.443622178418734,1.511367643086549,0.5082437151101274,1.305319303647117,1.055383863931957,1.344295022934543,0.5153957405534778,1.279388513932248,1.097337247403754,1.10963216123908,0.4284615139803417,1.029179456357794,1.013691422306225,0.5772302803666757,0.03944623785192108,0.9095656229592697,0.4332582866457438,808.2783882783883,807.8754578754579,748.2417582417582,812.7106227106227,817.5457875457876,0.192871,0.123657,0.997437,2.033691,0.889740,4.351501,327985.347985,156622271.062271,109248937.728938,90.336052,1,2,1,1,2,40.000000
2025-11-11 12:30:52.967,,,,,,,,,,,,,,,,,,,,,,,,,,,,,,,,,,,,,,,,,,/muse/elements/blink
2025-11-11 12:30:53.623,1.58290036694325,1.21562950450549,1.140523329990622,1.443622178418734,1.511367643086549,0.5609806140283825,1.305319303647117,1.055383863931957,1.344295022934543,0.3916230903856174,1.279388513932248,1.097337247403754,1.10963216123908,0.4950247026069142,1.029179456357794,1.013691422306225,0.5772302803666757,0.08393629271735355,0.9095656229592697,0.4332582866457438,678.5347985347986,759.1208791208792,758.3150183150184,695.0549450549451,624.1391941391942,0.298584,0.090210,0.882568,-15.491943,0.224304,-11.723633,320732.600733,156936556.776557,109236043.956044,81.557526,1,2,1,1,2,40.000000
2025-11-11 12:30:53.822,,,,,,,,,,,,,,,,,,,,,,,,,,,,,,,,,,,,,,,,,,/muse/elements/blink
