TimeStamp,Delta_TP9,Delta_AF7,Delta_AF8,Delta_TP10,Theta_TP9,Theta_AF7,Theta_AF8,Theta_TP10,Alpha_TP9,Alpha_AF7,Alpha_AF8,Alpha_TP10,Beta_TP9,Beta_AF7,Beta_AF8,Beta_TP10,Gamma_TP9,Gamma_AF7,Gamma_AF8,Gamma_TP10,RAW_TP9,RAW_AF7,RAW_AF8,RAW_TP10,AUX_RIGHT,Accelerometer_X,Accelerometer_Y,Accelerometer_Z,Gyro_X,Gyro_Y,Gyro_Z,PPG_Ambient,PPG_IR,PPG_Red,Heart_Rate,HeadBandOn,HSI_TP9,HSI_AF7,HSI_AF8,HSI_TP10,Battery,Elements
2025-11-11 16:39:28.188,,,,,,,,,,,,,,,,,,,,,,,,,,,,,,,,,,,,,,,,,,/muse/event/connected Muse-135C
2025-11-11 16:39:28.281,,,,,,,,,,,,,,,,,,,,,,,,,,,,,,,,,,,,,,,,,,/muse/elements/blink
2025-11-11 16:39:28.305,,,,,,,,,,,,,,,,,,,,,,,,,,,,,,,,,,,,,,,,,,/muse/elements/blink
2025-11-11 16:39:28.757,,,,,,,,,,,,,,,,,,,,,,,,,,,,,,,,,,,,,,,,,,/muse/elements/blink
2025-11-11 16:39:28.907,,,,,,,,,,,,,,,,,,,,,,,,,,,,,,,,,,,,,,,,,,/muse/elements/blink
2025-11-11 16:39:29.140,,,,,,,,,,,,,,,,,,,,,,,,,,,,,,,,,,,,,,,,,,/muse/elements/blink
2025-11-11 16:39:29.188,0,0,0,0.03200830733086634,0,0,0,0.620506521794074,0,0,0,0.7480347435754723,0,0,0,0.8555363471776295,0,0,0,0.3934125682017838,826.007326007326,764.7619047619048,639.8534798534798,774.8351648351648,566.5201465201466,-0.128479,0.011108,0.956238,-2.871094,-3.820648,1.809387,498021.978022,144819633.699634,71459706.959707,75.153587,1,2,1,1,2,55.000000
2025-11-11 16:39:29.671,,,,,,,,,,,,,,,,,,,,,,,,,,,,,,,,,,,,,,,,,,/muse/elements/blink
2025-11-11 16:39:29.947,,,,,,,,,,,,,,,,,,,,,,,,,,,,,,,,,,,,,,,,,,/muse/elements/blink
2025-11-11 16:39:30.119,,,,,,,,,,,,,,,,,,,,,,,,,,,,,,,,,,,,,,,,,,/muse/elements/blink
2025-11-11 16:39:30.191,0,0,0,0.03200830733086634,0,0,0,0.620506521794074,0,0,0,0.7480347435754723,0,0,0,0.8555363471776295,0,0,0,0.3934125682017838,754.2857142857143,591.0989010989011,614.4688644688645,748.6446886446887,653.1501831501831,-0.394287,0.084534,0.916931,7.858124,1.323395,15.357361,377948.717949,144195091.575092,71188131.868132,76.556389,1,2,1,1,2,55.000000
2025-11-11 16:39:30.373,,,,,,,,,,,,,,,,,,,,,,,,,,,,,,,,,,,,,,,,,,/muse/elements/blink
2025-11-11 16:39:30.650,,,,,,,,,,,,,,,,,,,,,,,,,,,,,,,,,,,,,,,,,,/muse/elements/blink
2025-11-11 16:39:30.968,,,,,,,,,,,,,,,,,,,,,,,,,,,,,,,,,,,,,,,,,,/muse/elements/blink
2025-11-11 16:39:31.189,0,0,0,0.03200830733086634,0,0,0,0.620506521794074,0,0,0,0.7480347435754723,0,0,0,0.8555363471776295,0,0,0,0.3934125682017838,841.3186813186813,535.0915750915751,565.3113553113553,856.2271062271062,842.1245421245421,-0.436646,0.166016,0.915771,-5.532837,-16.710663,-9.473114,358608.058608,144392527.472527,71130109.890110,76.556389,1,2,1,2,2,55.000000
2025-11-11 16:39:31.264,,,,,,,,,,,,,,,,,,,,,,,,,,,,,,,,,,,,,,,,,,/muse/elements/blink
2025-11-11 16:39:31.860,,,,,,,,,,,,,,,,,,,,,,,,,,,,,,,,,,,,,,,,,,/muse/elements/blink
2025-11-11 16:39:32.189,0,0,0,0.03200830733086634,0,0,0,0.620506521794074,0,0,0,0.7480347435754723,0,0,0,0.8555363471776295,0,0,0,0.3934125682017838,784.5054945054945,646.7032967032967,857.8388278388279,782.893772893773,906.996336996337,-0.394043,0.109985,0.922485,-3.917847,-4.037476,-2.168274,361025.641026,143332014.652015,70571648.351648,76.556389,1,2,1,2,2,55.000000
2025-11-11 16:39:33.188,0,0,0,0.03200830733086634,0,0,0,0.620506521794074,0,0,0,0.7480347435754723,0,0,0,0.8555363471776295,0,0,0,0.3934125682017838,748.2417582417582,598.3516483516484,530.6593406593407,753.4798534798535,610.4395604395604,-0.422058,0.118042,0.879761,2.407532,-0.882263,0.822449,361025.641026,142891208.791209,70405641.025641,76.556389,1,2,4,1,2,55.000000
2025-11-11 16:39:33.411,,,,,,,,,,,,,,,,,,,,,,,,,,,,,,,,,,,,,,,,,,/muse/elements/blink
2025-11-11 16:39:34.188,0,0,0,0.03200830733086634,0,0,0,0.620506521794074,0,0,0,0.7480347435754723,0,0,0,0.8555363471776295,0,0,0,0.3934125682017838,780.8791208791209,609.2307692307693,559.2673992673992,779.2673992673992,801.025641025641,-0.417542,0.116577,0.903503,0.254211,-2.893524,0.216827,361831.501832,143570549.450549,70553919.413919,77.322540,1,2,1,2,2,55.000000
2025-11-11 16:39:34.812,,,,,,,,,,,,,,,,,,,,,,,,,,,,,,,,,,,,,,,,,,/muse/elements/blink
2025-11-11 16:39:35.189,0,0,0,0.03200830733086634,0,0,0,0.620506521794074,0,0,0,0.7480347435754723,0,0,0,0.8555363471776295,0,0,0,0.3934125682017838,765.1648351648352,663.6263736263736,550,785.7142857142858,738.974358974359,-0.412292,0.116638,0.909912,-0.934601,-3.357086,-0.366364,362637.362637,143473846.153846,70448351.648352,79.877708,1,2,1,2,2,55.000000
2025-11-11 16:39:35.956,,,,,,,,,,,,,,,,,,,,,,,,,,,,,,,,,,,,,,,,,,/muse/elements/blink
2025-11-11 16:39:36.188,0,0,0,0.03200830733086634,0,0,0,0.620506521794074,0,0,0,0.7480347435754723,0,0,0,0.8555363471776295,0,0,0,0.3934125682017838,763.5531135531136,754.2857142857143,606.007326007326,795.7875457875458,682.5641025641025,-0.400146,0.126465,0.911133,-0.291595,-2.467346,0.837402,361831.501832,143451282.051282,70435457.875458,78.391289,1,2,1,1,2,55.000000
2025-11-11 16:39:36.637,,,,,,,,,,,,,,,,,,,,,,,,,,,,,,,,,,,,,,,,,,/muse/elements/blink
2025-11-11 16:39:37.189,0,0,0,0.03200830733086634,0,0,0,0.620506521794074,0,0,0,0.7480347435754723,0,0,0,0.8555363471776295,0,0,0,0.3934125682017838,699.4871794871796,761.941391941392,608.021978021978,707.1428571428571,695.0549450549451,-0.402405,0.121094,0.907288,-0.792542,-1.211243,-0.500946,361025.641026,143225641.025641,70195311.355311,76.563522,1,2,1,1,2,55.000000
2025-11-11 16:39:37.338,,,,,,,,,,,,,,,,,,,,,,,,,,,,,,,,,,,,,,,,,,/muse/elements/blink
2025-11-11 16:39:38.189,0,0,0,0.03200830733086634,0,0,0,0.620506521794074,0,0,0,0.7480347435754723,0,0,0,0.8555363471776295,0,0,0,0.3934125682017838,727.2893772893773,876.7765567765568,586.2637362637363,742.6007326007326,727.2893772893773,-0.434265,0.114868,0.896301,-0.755157,-1.136475,-0.583191,361025.641026,142584175.824176,69885860.805861,75.948044,1,2,1,1,2,55.000000
2025-11-11 16:39:38.464,,,,,,,,,,,,,,,,,,,,,,,,,,,,,,,,,,,,,,,,,,/muse/elements/blink
2025-11-11 16:39:38.656,,,,,,,,,,,,,,,,,,,,,,,,,,,,,,,,,,,,,,,,,,/muse/elements/blink
2025-11-11 16:39:39.197,0,0,0,0.03200830733086634,0,0,0,0.620506521794074,0,0,0,0.7480347435754723,0,0,0,0.8555363471776295,0,0,0,0.3934125682017838,780.8791208791209,787.7289377289378,635.4212454212454,763.956043956044,653.956043956044,-0.435303,0.118896,0.891907,-0.687866,-1.973877,0.254211,359413.919414,141870989.010989,69708571.428571,75.813995,1,2,1,1,2,55.000000
2025-11-11 16:39:39.888,,,,,,,,,,,,,,,,,,,,,,,,,,,,,,,,,,,,,,,,,,/muse/elements/blink
2025-11-11 16:39:40.188,0,0,0,0.03200830733086634,0,0,0,0.620506521794074,0,0,0,0.7480347435754723,0,0,0,0.8555363471776295,0,0,0,0.3934125682017838,780.8791208791209,778.4615384615385,718.021978021978,777.6556776556777,770,-0.430359,0.115601,0.898254,-0.411224,-2.048645,-0.299072,361025.641026,141515604.395604,69744029.304029,76.781990,1,2,1,1,2,55.000000
2025-11-11 16:39:40.992,,,,,,,,,,,,,,,,,,,,,,,,,,,,,,,,,,,,,,,,,,/muse/elements/blink
2025-11-11 16:39:41.194,0,0,0,0.03200830733086634,0,0,0,0.620506521794074,0,0,0,0.7480347435754723,0,0,0,0.8555363471776295,0,0,0,0.3934125682017838,794.5787545787546,731.3186813186813,740.989010989011,774.8351648351648,715.2014652014652,-0.420471,0.110291,0.898499,-0.082245,0.231781,-1.076660,361025.641026,141309304.029304,69753699.633700,77.047653,1,2,1,1,2,55.000000
2025-11-11 16:39:41.331,,,,,,,,,,,,,,,,,,,,,,,,,,,,,,,,,,,,,,,,,,/muse/elements/blink
2025-11-11 16:39:42.029,,,,,,,,,,,,,,,,,,,,,,,,,,,,,,,,,,,,,,,,,,/muse/elements/blink
2025-11-11 16:39:42.188,0,0,0,0.03200830733086634,0,0,0,0.620506521794074,0,0,0,0.7480347435754723,0,0,0,0.8555363471776295,0,0,0,0.3934125682017838,816.3369963369963,857.032967032967,708.3516483516484,785.7142857142858,604.7985347985348,-0.451416,0.113586,0.888855,-0.261688,0.493469,-0.426178,360219.780220,141231135.531136,69919706.959707,77.095177,1,2,1,1,2,55.000000
2025-11-11 16:39:42.966,,,,,,,,,,,,,,,,,,,,,,,,,,,,,,,,,,,,,,,,,,/muse/elements/blink
2025-11-11 16:39:43.189,0,0,0,0.03200830733086634,0,0,0,0.620506521794074,0,0,0,0.7480347435754723,0,0,0,0.8555363471776295,0,0,0,0.3934125682017838,804.6520146520147,804.6520146520147,746.2271062271062,797.3992673992674,856.2271062271062,-0.446106,0.117004,0.891357,-0.426178,-2.243042,0.239258,361831.501832,140886227.106227,69917289.377289,75.236511,1,2,1,1,2,55.000000
2025-11-11 16:39:44.189,0,0,0,0.03200830733086634,0,0,0,0.620506521794074,0,0,0,0.7480347435754723,0,0,0,0.8555363471776295,0,0,0,0.3934125682017838,774.0293040293041,809.0842490842491,755.8974358974359,778.4615384615385,842.1245421245421,-0.431519,0.122559,0.890686,0.067291,-2.370148,0.269165,361831.501832,140975677.655678,69981758.241758,74.875244,1,2,1,1,2,55.000000
2025-11-11 16:39:45.189,0,0,0,0.8803012647765563,0,0,0,0.9346248058598637,0,0,0,1.122736675704479,0,0,0,0.852327680061586,0,0,0,0.1442014139362293,774.0293040293041,812.7106227106227,718.021978021978,778.0586080586081,710.3663003663004,-0.446167,0.119385,0.885254,-0.538330,-0.979462,0.381317,361025.641026,141063516.483516,70139706.959707,75.666557,1,1,1,1,1,55.000000
2025-11-11 16:39:45.598,,,,,,,,,,,,,,,,,,,,,,,,,,,,,,,,,,,,,,,,,,/muse/elements/blink
2025-11-11 16:39:46.188,0,0,0,0.6333249796642523,0,0,0,0.7311813184294352,0,0,0,0.7969442592333835,0,0,0,0.8380873848321206,0,0,0,0.09047862381393254,778.0586080586081,813.919413919414,772.014652014652,784.1025641025641,850.989010989011,-0.451599,0.116150,0.893860,-0.665436,-1.794434,0.186920,361831.501832,141233553.113553,70240439.560440,74.702415,1,1,1,1,1,55.000000
2025-11-11 16:39:47.189,0.7949060566169591,0.820693806500672,0,0.7772132212937075,0.7585347267461497,1.002498703963513,0,0.7861978333930706,1.387227005297063,1.051623942968157,0,1.269445660135234,0.548805479174024,0.9658886153662941,0,0.3075530240675523,0.1986290178067261,0.4714213208992917,0,0.1018772382180178,753.4798534798535,837.2893772893773,781.6849816849817,751.4652014652015,821.1721611721612,-0.455383,0.117493,0.889832,-0.224304,-1.443024,-0.471039,361025.641026,141098168.498168,70219487.179487,72.536621,1,1,1,1,1,55.000000
2025-11-11 16:39:48.190,1.141761231864726,0.8443611980354501,0,1.057551354163365,1.086650172528012,1.025530706362929,0,1.167854746727643,1.756417114983569,0.9202316470945037,0,1.648481678455521,0.5511051818103447,0.9496127593071828,0,0.5477852697563239,0.1303951956287084,0.413490166104073,0,0.1013775109667414,801.8315018315019,792.5641025641025,721.2454212454213,811.5018315018315,593.919413919414,-0.445557,0.120667,0.887207,-0.441132,-3.237457,0.044861,362637.362637,140481684.981685,70109084.249084,70.374344,1,1,1,1,1,55.000000
2025-11-11 16:39:49.166,,,,,,,,,,,,,,,,,,,,,,,,,,,,,,,,,,,,,,,,,,/muse/elements/blink
2025-11-11 16:39:49.188,1.256817048281142,0.8882216081893544,0.927536976934256,1.149981325656049,1.078659407977562,1.050510958646449,1.185788614194534,1.173261181293471,1.72892844182989,0.850134456389159,1.501110819108212,1.593037305817585,0.4781970599513917,0.9314606230844772,1.010083693327679,0.5676711987449043,0.1187626805288223,0.3576400794875318,0.3166110409672269,0.2802059300359492,852.1978021978023,802.6373626373627,755.8974358974359,875.1648351648352,747.032967032967,-0.449463,0.123535,0.885864,-0.590668,-2.100983,-0.471039,363443.223443,140160146.520147,70033333.333333,68.416039,1,1,1,1,1,55.000000
2025-11-11 16:39:50.193,1.075832539401356,0.8882216081893544,0.9497469750760908,0.9441595604227154,0.2706199505869482,1.050510958646449,1.191677033688279,0.4714557047549313,1.052315408584099,0.850134456389159,1.45645212195114,0.7925778680849357,0.3211659868048128,0.9314606230844772,0.9934669159304452,0.3768263401912721,0.07416909777468285,0.3576400794875318,0.4043174544545191,0.3348658078347084,790.1465201465202,773.2234432234433,769.1941391941392,797.3992673992674,753.8827838827839,-0.443359,0.124573,0.884216,-0.336456,-1.024323,-0.194397,361831.501832,140193186.813187,70077655.677656,67.199341,1,1,1,1,1,55.000000
2025-11-11 16:39:51.194,0.9485402632451257,0.8882216081893544,0.9979019428905762,1.064683401746511,0.8057518814611646,1.050510958646449,1.163909457893547,0.8891501210645355,1.004130556479794,0.850134456389159,1.27474423702742,0.8927359896561153,0.3121589488539531,0.9314606230844772,1.074917306567145,0.4310377454229146,0.2972688816834136,0.3576400794875318,0.3106343619546949,0.3732411915264841,773.6263736263736,786.1172161172161,739.7802197802198,773.2234432234433,577.8021978021978,-0.449158,0.119019,0.891418,-0.194397,-1.555176,-0.000000,360219.780220,140440586.080586,70121978.021978,66.554741,1,1,1,1,1,55.000000
2025-11-11 16:39:51.633,,,,,,,,,,,,,,,,,,,,,,,,,,,,,,,,,,,,,,,,,,/muse/elements/blink
2025-11-11 16:39:52.198,0.8939593404587887,0.8882216081893544,1.08752890083415,1.108858356012389,0.6753061193749964,1.050510958646449,1.059148333785706,0.8238782098703856,1.014356392111014,0.850134456389159,1.263784815130586,0.9297654711732523,0.3940116645530756,0.9314606230844772,1.05688270398875,0.5104230393605622,0.2716572754502556,0.3576400794875318,0.1885972689446075,0.3801464705058782,766.7765567765568,773.2234432234433,732.9304029304029,758.7179487179487,713.992673992674,-0.436035,0.117554,0.892395,-0.695343,-4.134674,0.201874,362637.362637,140478461.538462,70096996.336996,65.916885,1,1,1,1,1,55.000000
2025-11-11 16:39:52.487,,,,,,,,,,,,,,,,,,,,,,,,,,,,,,,,,,,,,,,,,,/muse/elements/blink
2025-11-11 16:39:53.189,0.8811916720470612,0.8882216081893544,1.08752890083415,1.108858356012389,0.5909791289912327,1.050510958646449,1.059148333785706,0.8238782098703856,0.7345041206172688,0.850134456389159,1.263784815130586,0.9297654711732523,0.5074115604060557,0.9314606230844772,1.05688270398875,0.5104230393605622,0.1365059135136943,0.3576400794875318,0.1885972689446075,0.3801464705058782,785.7142857142858,821.1721611721612,790.952380952381,789.3406593406594,823.1868131868132,-0.441284,0.118103,0.892517,-0.373840,-1.764526,0.104675,363443.223443,140365641.025641,69976117.216117,65.874107,1,1,1,1,1,55.000000
2025-11-11 16:39:54.189,0.8811916720470612,0.8387154664486236,1.08752890083415,1.108858356012389,0.5909791289912327,0.9018696904393352,1.059148333785706,0.8238782098703856,0.7345041206172688,0.8435495525346649,1.263784815130586,0.9297654711732523,0.5074115604060557,0.7827481008061838,1.05688270398875,0.5104230393605622,0.1365059135136943,0.3566080567041462,0.1885972689446075,0.3801464705058782,821.5750915750916,789.3406593406594,779.2673992673992,820.3663003663004,733.7362637362637,-0.442627,0.120422,0.890930,-0.336456,-1.562653,-0.276642,360219.780220,139901465.201465,69780293.040293,65.841324,1,2,1,1,2,55.000000
2025-11-11 16:39:54.232,,,,,,,,,,,,,,,,,,,,,,,,,,,,,,,,,,,,,,,,,,/muse/elements/blink
2025-11-11 16:39:55.189,0.8811916720470612,0.9230926670459527,1.08752890083415,1.108858356012389,0.5909791289912327,0.8677759299617888,1.059148333785706,0.8238782098703856,0.7345041206172688,0.8413282923680356,1.263784815130586,0.9297654711732523,0.5074115604060557,0.7704131929800718,1.05688270398875,0.5104230393605622,0.1365059135136943,0.380958314064665,0.1885972689446075,0.3801464705058782,778.4615384615385,813.5164835164835,796.5934065934066,782.4908424908425,798.2051282051282,-0.439514,0.123352,0.891479,-0.523376,-2.302856,0.171967,361025.641026,139646007.326007,69759340.659341,65.964264,1,2,1,1,2,55.000000
2025-11-11 16:39:56.195,0.4171314139989771,0.7718978098870115,1.08752890083415,-0.1171159521601254,0.5396132104014721,1.053953636377188,1.059148333785706,0.06875306130877552,0.9726779202013512,0.7211145007451589,1.263784815130586,0.4552484893973047,0.6289701179000705,0.8540986594296233,1.05688270398875,0.5883535714202767,0.149527467104768,0.2882629056741617,0.1885972689446075,0.02437092318165767,779.2673992673992,798.6080586080586,750.6593406593407,782.4908424908425,1067.362637362637,-0.432922,0.123108,0.892456,-0.657959,-2.063599,-0.246735,360219.780220,139683882.783883,69886666.666667,65.615364,1,1,1,1,1,55.000000
2025-11-11 16:39:56.760,,,,,,,,,,,,,,,,,,,,,,,,,,,,,,,,,,,,,,,,,,/muse/elements/blink
2025-11-11 16:39:57.189,0.4932342465329472,0.7614446556119819,1.004320573384657,-0.2084915296862808,0.5986988094681956,1.02821826263596,0.7409012435773826,0.1721503377143614,0.9468607356749045,0.869903313906611,0.8402612508854195,0.4552484893973047,0.6410222138371183,0.9261176065741763,0.5012916688226381,0.5541330043422221,0.2224905386606161,0.2791706953943021,0.03140977897450205,0.08526031779700527,785.3113553113553,820.3663003663004,824.7985347985348,774.4322344322345,643.0769230769231,-0.429138,0.121399,0.896118,-0.979462,-2.160797,0.209351,361025.641026,139758827.838828,69934212.454212,65.880432,1,1,1,1,1,55.000000
2025-11-11 16:39:58.189,0.1694794918820765,0.1979486048949328,1.165318236359748,0.5075035598049716,0.3558633887005156,0.3033197622168104,1.072051195203321,0.5823616422948376,0.6622419265520199,0.7641323550431508,0.7853179712892826,0.4434125748485971,0.4883105104124395,0.6994591094981882,0.5200969025915364,0.6242421759531485,-0.1207138993550833,0.2302921989163225,-0.1512569272637452,0.09972007028485766,784.5054945054945,814.7252747252747,824.7985347985348,776.4468864468864,1130.622710622711,-0.431335,0.125000,0.896301,-0.157013,-2.504730,-0.157013,362637.362637,139932893.772894,69976923.076923,66.833977,1,1,1,1,1,55.000000
2025-11-11 16:39:59.198,0.5245862854329723,0.5759439695991447,1.047665689847532,0.6041837902930032,0.3311845105852717,0.3989139800905425,0.4788522654305938,0.5303122065643405,0.8589696143097657,0.8546995367825047,0.1786698296670754,0.6637032998451114,0.3727897684946266,0.7141330641958942,0.4043613395271233,0.5711500034212749,0.1443451779423254,0.3418038711177581,0.04559106503641042,0.1347936144356295,791.3553113553114,840.1098901098901,801.025641025641,775.6410256410256,796.5934065934066,-0.431213,0.124451,0.892395,-0.373840,-2.250519,0.276642,361025.641026,139832161.172161,70019633.699634,66.048523,1,1,1,1,1,55.000000
2025-11-11 16:40:00.193,0.4735471774475285,0.8131111701464515,1.03952495482052,0.621028616650101,0.2956795719150418,0.4947684791500957,0.5358658411050188,0.4126527300316984,0.8566712266096685,0.8309463708936258,0.5268156787153231,0.6229454254010711,0.2753255612741164,0.7318046336809778,0.3662316983883954,0.4789242410132771,0.2420575015697782,0.4500517304023192,-0.1686686338790457,0.09780371414538908,781.2820512820513,818.3516483516484,776.8498168498169,791.3553113553114,581.8315018315019,-0.428894,0.122864,0.892639,-0.463562,-0.904694,-0.635529,361831.501832,139290622.710623,69919706.959707,65.639229,1,1,1,1,1,55.000000
2025-11-11 16:40:00.524,,,,,,,,,,,,,,,,,,,,,,,,,,,,,,,,,,,,,,,,,,/muse/elements/blink
2025-11-11 16:40:01.190,0.1664767338700814,0.8131111701464515,1.015253851756642,0.7301697417163553,0.454584186210537,0.4947684791500957,0.8104382435434454,0.4415658968689294,0.7443792516114861,0.8309463708936258,0.6117171519290836,0.6134628033975853,0.3264460459543143,0.7318046336809778,0.4183246373101294,0.4300865587950857,0.3409968801280397,0.4500517304023192,-0.3550878873981748,0.2460989006958121,774.0293040293041,811.5018315018315,807.4725274725275,772.4175824175825,823.1868131868132,-0.429993,0.124939,0.888367,-0.485992,-1.420593,-0.044861,361025.641026,139422783.882784,69892307.692308,65.008888,1,1,1,1,1,55.000000
2025-11-11 16:40:02.194,0.110064686929607,0.534234006039619,1.027078245444061,0.1020257725964427,0.3185129041264415,0.4626536489614642,0.8293004442714086,0.2552371645306346,0.6225553492211149,0.7990877579462867,0.7365830772889048,0.292517170854813,0.3566948825344556,0.4908322073106063,0.3798374900310566,0.5186899185117809,-0.03070503202405367,0.2829651234581844,-0.2937112686058445,0.05215638355928836,825.2014652014652,786.1172161172161,772.014652014652,826.4102564102565,871.5384615384615,-0.434814,0.124573,0.893860,-0.299072,-1.487885,-0.179443,362637.362637,139650036.630037,69980146.520147,64.707024,1,1,1,1,1,55.000000
2025-11-11 16:40:02.226,,,,,,,,,,,,,,,,,,,,,,,,,,,,,,,,,,,,,,,,,,/muse/elements/blink
2025-11-11 16:40:02.930,,,,,,,,,,,,,,,,,,,,,,,,,,,,,,,,,,,,,,,,,,/muse/elements/blink
2025-11-11 16:40:03.195,0.03023306851368184,0.6724713107018064,1.116085962729909,0.1113442178412583,0.1901668342949724,0.5418818171013954,0.7521250695233097,0.2497934119005834,0.353176121874306,0.7966149241054526,0.5353176469285746,0.2580233763385928,0.3449445223311981,0.50618469628467,0.3743363885400703,0.4856426238068927,-0.05757469195073757,0.2855741589118485,-0.1285092726450963,0.04312748951833386,835.6776556776557,790.1465201465202,777.6556776556777,830.0366300366301,544.7619047619048,-0.427795,0.120422,0.896240,-0.717773,-2.527161,-0.179443,361831.501832,139646813.186813,70059926.739927,64.323929,1,1,1,1,1,55.000000
2025-11-11 16:40:03.271,,,,,,,,,,,,,,,,,,,,,,,,,,,,,,,,,,,,,,,,,,/muse/elements/blink
2025-11-11 16:40:04.189,0.03023306851368184,0.782305563314548,0.8118031364490756,0.1113442178412583,0.1901668342949724,0.586809538306857,0.7131369393267966,0.2497934119005834,0.353176121874306,0.5735008381400803,0.6701773251418536,0.2580233763385928,0.3449445223311981,0.4905800647758123,0.1550283080138725,0.4856426238068927,-0.05757469195073757,0.2841996319756546,-0.3055062826222783,0.04312748951833386,799.4139194139194,817.5457875457876,794.1758241758242,793.3699633699634,797.8021978021978,-0.431213,0.119751,0.892334,-0.500946,-2.714081,0.471039,361025.641026,139652454.212454,70052673.992674,64.246506,1,1,1,1,1,55.000000
2025-11-11 16:40:05.197,0.8942964760440574,0.8521503757772146,0.864787902636097,0.2417501749123667,0.6019475050333133,0.4725539294037415,0.4694791472147091,0.2845218752409744,0.413521634074938,0.8489759452963322,0.545185171979641,0.7337041976866675,0.3666689538424132,0.5692561654890717,0.02658932465780812,0.6773759957951663,-0.03115868811795757,0.1346685549900014,-0.1989375266866708,0.1506604239662565,778.4615384615385,794.1758241758242,748.2417582417582,788.5347985347986,1026.263736263736,-0.435059,0.128296,0.891968,-0.762634,-3.379517,-0.000000,361025.641026,139642783.882784,70022857.142857,64.836807,1,1,1,1,1,55.000000
2025-11-11 16:40:05.464,,,,,,,,,,,,,,,,,,,,,,,,,,,,,,,,,,,,,,,,,,/muse/elements/blink
2025-11-11 16:40:06.194,0.9395261929951523,0.8985330410612447,0.6839306249736219,0.2729761946361388,0.617661565786615,0.2552289315724193,0.3493245111139917,0.2079968030973646,0.3890677348870368,0.8168298781447784,0.6024903919976534,0.672842021955793,0.3913852791756771,0.4937913602609931,0.15643534881749,0.693900809579662,-0.04410253185323335,0.1889832914534006,-0.1132107510343895,0.1644393052509454,778.0586080586081,821.978021978022,747.8388278388279,775.6410256410256,605.2014652014652,-0.427429,0.127869,0.897156,-0.635529,-1.779480,0.164490,362637.362637,139679853.479853,69970476.190476,63.867020,1,1,1,1,1,55.000000
2025-11-11 16:40:07.189,-0.08493059048493536,0.8422844403145963,0.5529718343777796,0.2998742736647934,0.3816673438403596,0.3106974347861435,0.249036824454332,0.2124571541299745,0.5246597728433553,0.8168298781447784,0.6193751232973593,0.4091004323092707,0.2938860645484715,0.5034445955610607,0.2731248861597231,0.6994205721391246,0.01375652744594133,0.1936971464278026,-0.2078617610062631,0.1645635475726582,685.7875457875458,825.6043956043957,770.4029304029305,674.5054945054945,893.2967032967033,-0.445129,0.132812,0.891357,-0.411224,-1.300964,-0.209351,362637.362637,139648424.908425,69941465.201465,63.836948,1,1,1,1,1,55.000000
2025-11-11 16:40:07.298,,,,,,,,,,,,,,,,,,,,,,,,,,,,,,,,,,,,,,,,,,/muse/elements/blink
2025-11-11 16:40:08.190,-0.2373086202150314,0.8422844403145963,0.8207136752384282,0.2998742736647934,0.3876624213745547,0.3106974347861435,0.4630155513408957,0.2124571541299745,0.4943327056352013,0.8168298781447784,0.3083511257306759,0.4091004323092707,0.3273968584089916,0.5034445955610607,0.1050569255764899,0.6994205721391246,0.02461539197937766,0.1936971464278026,-0.04263501123212293,0.1645635475726582,763.1501831501831,806.2637362637363,754.2857142857143,774.8351648351648,639.8534798534798,-0.445496,0.131470,0.886047,-0.643005,-2.243042,-0.336456,361831.501832,139745128.205128,70023663.003663,64.685799,1,1,1,1,1,55.000000
2025-11-11 16:40:09.196,0.689727306850786,0.3460300845110336,0.6800140886432878,0.6474535189506513,0.7044320336054583,0.4252745781152579,0.565915936674912,0.5525624613000979,1.477362691569528,0.5857017216248299,0.6524699223794606,1.506185222057312,0.4894698395430061,0.5863301905056564,0.1823101421773313,0.4410733356352143,0.08958443608040041,0.04320219062528647,-0.1795034881529956,0.236500245340211,789.3406593406594,831.6483516483516,746.2271062271062,780.4761904761905,554.8351648351648,-0.439636,0.137085,0.878052,-0.381317,-1.226196,0.411224,362637.362637,139947399.267399,70092161.172161,64.661949,1,1,1,1,1,55.000000
2025-11-11 16:40:10.189,1.27834283692196,0.7278497569268821,0.8588218518914473,1.166323210731674,0.7137346509790127,0.4831250690309077,0.6750526552591698,0.6958291579681343,1.367508283391683,0.64986799285047,0.6040809073862585,1.544561829306166,0.4164558093994412,0.5330037191065732,0.2363704417398755,0.3395855216036434,0.07742769547037802,0.07716652999207139,-0.3284705799072372,0.1435817059075913,789.3406593406594,815.5311355311355,797.8021978021978,779.2673992673992,812.7106227106227,-0.453003,0.160583,0.883728,-1.383209,-3.267365,1.869202,361025.641026,139994139.194139,70119560.439560,65.020081,1,1,1,1,1,55.000000
2025-11-11 16:40:11.191,1.20625243640092,1.09250987320879,0.8926321584035279,1.203636376179321,0.843491230986934,0.8251909145612034,0.7719409761083115,1.026174866222316,1.264464542036037,0.7814163146813476,0.2965403345973495,1.41290660233318,0.3494219735881517,0.4493160090698881,0.2893652107271548,0.4199745491744332,0.04849898890027415,0.1389280329930257,-0.5058974350642782,0.3569892210499463,788.5347985347986,857.4358974358975,745.8241758241759,777.2527472527473,778.0586080586081,-0.480896,0.167114,0.867493,-0.874786,-3.558960,1.114044,359413.919414,139650842.490842,69955970.695971,64.818092,1,1,1,1,1,55.000000
2025-11-11 16:40:11.382,,,,,,,,,,,,,,,,,,,,,,,,,,,,,,,,,,,,,,,,,,/muse/elements/blink
2025-11-11 16:40:11.891,,,,,,,,,,,,,,,,,,,,,,,,,,,,,,,,,,,,,,,,,,/muse/elements/blink
2025-11-11 16:40:12.190,1.31293735740718,1.23954997509258,0.8926321584035279,1.393629937405632,1.312718778855266,0.9815456654922785,0.7719409761083115,1.489902065006728,1.747495597934663,0.7717643678826593,0.2965403345973495,1.847673978168655,0.4623383334133371,0.5125720252782289,0.2893652107271548,0.6177697888511816,0.07430870919760547,0.1389921168297823,-0.5058974350642782,0.04269597360471034,796.5934065934066,796.1904761904763,783.2967032967033,801.025641025641,579.4139194139194,-0.443176,0.070068,0.847900,0.082245,-4.830017,-6.893616,364249.084249,139248717.948718,69825421.245421,64.818092,1,1,1,1,1,55.000000
2025-11-11 16:40:13.190,1.449666292420988,1.23954997509258,0.8926321584035279,1.479808237148664,1.615138651432783,0.9815456654922785,0.7719409761083115,1.62281836052011,1.745758279857381,0.7717643678826593,0.2965403345973495,1.847329725653553,0.6385805874642498,0.5125720252782289,0.2893652107271548,0.6069310875697109,-0.05678383594960559,0.1389921168297823,-0.5058974350642782,-0.02901195210083518,787.7289377289378,786.1172161172161,751.8681318681319,784.1025641025641,778.4615384615385,-0.454773,0.125183,0.867249,0.059814,-4.523468,-1.659851,363443.223443,139313992.673993,69756923.076923,67.951416,1,1,1,1,1,55.000000
2025-11-11 16:40:13.617,,,,,,,,,,,,,,,,,,,,,,,,,,,,,,,,,,,,,,,,,,/muse/elements/blink
2025-11-11 16:40:14.190,1.703407759688262,0.6941073527636578,0.8926321584035279,1.479808237148664,1.144691113079406,0.5525476542346681,0.7719409761083115,1.62281836052011,1.312746665989487,0.8913506786971279,0.2965403345973495,1.847329725653553,0.6978393388590256,0.7003076348194263,0.2893652107271548,0.6069310875697109,0.1369445312977544,0.3567736797464156,-0.5058974350642782,-0.02901195210083518,804.2490842490843,803.8461538461539,701.0989010989011,794.5787545787546,671.6849816849817,-0.445129,0.131592,0.884949,0.837402,-2.452393,-0.814972,361831.501832,139920000.000000,69914871.794872,72.603569,1,1,1,1,1,55.000000
2025-11-11 16:40:14.751,,,,,,,,,,,,,,,,,,,,,,,,,,,,,,,,,,,,,,,,,,/muse/elements/blink
2025-11-11 16:40:15.189,1.703407759688262,0.6406477974092025,0.8926321584035279,1.479808237148664,1.144691113079406,0.4092359859991452,0.7719409761083115,1.62281836052011,1.312746665989487,0.6048309351137818,0.2965403345973495,1.847329725653553,0.6978393388590256,0.7097458810407177,0.2893652107271548,0.6069310875697109,0.1369445312977544,0.322615107902382,-0.5058974350642782,-0.02901195210083518,778.4615384615385,809.0842490842491,757.1062271062272,785.7142857142858,630.1831501831502,-0.460693,0.136108,0.881470,-0.740204,-2.123413,0.403748,362637.362637,140409157.509158,69963223.443223,73.363052,1,1,1,1,1,55.000000
2025-11-11 16:40:16.190,1.703407759688262,0.6406477974092025,0.8926321584035279,1.479808237148664,1.144691113079406,0.4092359859991452,0.7719409761083115,1.62281836052011,1.312746665989487,0.6048309351137818,0.2965403345973495,1.847329725653553,0.6978393388590256,0.7097458810407177,0.2893652107271548,0.6069310875697109,0.1369445312977544,0.322615107902382,-0.5058974350642782,-0.02901195210083518,790.1465201465202,801.8315018315019,794.981684981685,800.2197802197802,946.0805860805862,-0.458984,0.137268,0.877686,-0.672913,-2.385101,-0.052338,363443.223443,140432527.472527,69866520.146520,70.711006,1,2,1,1,2,55.000000
2025-11-11 16:40:16.284,,,,,,,,,,,,,,,,,,,,,,,,,,,,,,,,,,,,,,,,,,/muse/elements/blink
2025-11-11 16:40:17.190,1.703407759688262,1.046919505116763,0.8926321584035279,1.479808237148664,1.144691113079406,0.6816287802382791,0.7719409761083115,1.62281836052011,1.312746665989487,0.9641298435522739,0.2965403345973495,1.847329725653553,0.6978393388590256,0.4716221829580998,0.2893652107271548,0.6069310875697109,0.1369445312977544,0.07649050619141445,-0.5058974350642782,-0.02901195210083518,590.2930402930403,866.3003663003664,801.4285714285714,610.0366300366301,938.021978021978,-0.460632,0.135132,0.877136,-1.360779,-2.669220,-1.143951,363443.223443,139656483.516484,69544175.824176,70.155136,1,2,1,1,2,55.000000
2025-11-11 16:40:17.368,,,,,,,,,,,,,,,,,,,,,,,,,,,,,,,,,,,,,,,,,,/muse/elements/blink
2025-11-11 16:40:18.189,1.703407759688262,0.6318335090463248,1.212004492695012,1.479808237148664,1.144691113079406,0.4291074435898325,0.8617976634365233,1.62281836052011,1.312746665989487,0.6969958554088186,0.4075595276655467,1.847329725653553,0.6978393388590256,0.3601995478582289,0.5201936113600433,0.6069310875697109,0.1369445312977544,0.1647393995234701,0.03731581853765738,-0.02901195210083518,798.6080586080586,830.4395604395604,788.9377289377289,800.6227106227107,665.2380952380953,-0.455200,0.130249,0.886475,-0.067291,-1.786957,0.194397,363443.223443,138787765.567766,69275018.315018,68.513596,1,2,1,1,2,55.000000
2025-11-11 16:40:19.190,1.379159984511718,1.005240714764518,1.150170726640976,1.479808237148664,1.199128606115497,0.737540095072493,1.017928426419646,1.62281836052011,1.285189588174008,0.5995239032650329,0.6075482581747522,1.847329725653553,0.6724293475930195,0.560351526686674,0.5207714401850776,0.6069310875697109,0.08065576400889077,-0.1173053900496275,-0.1120138071184232,-0.02901195210083518,785.7142857142858,800.2197802197802,799.4139194139194,794.981684981685,863.4798534798535,-0.452209,0.130798,0.882874,-0.747681,-3.110352,-0.134583,361831.501832,138106007.326007,69173479.853480,66.713181,1,1,1,1,1,55.000000
2025-11-11 16:40:19.622,,,,,,,,,,,,,,,,,,,,,,,,,,,,,,,,,,,,,,,,,,/muse/elements/blink
2025-11-11 16:40:20.190,1.357931158884543,0.9732935872525935,1.055002801247443,1.479808237148664,1.324609732571891,0.6947085062481098,1.089826353160179,1.62281836052011,1.300484489047278,0.5296069484609748,0.591335457075596,1.847329725653553,0.7194281706571569,0.4691538137271212,0.5319423379757814,0.6069310875697109,0.09058278151481484,-0.06124261686525415,-0.2431780749564451,-0.02901195210083518,788.5347985347986,802.2344322344322,794.1758241758242,783.2967032967033,1019.81684981685,-0.444092,0.129272,0.892639,-1.031799,-2.280426,-0.097198,363443.223443,137809450.549451,69250036.630037,66.339905,1,1,1,1,1,55.000000
2025-11-11 16:40:21.190,1.159665951876961,0.948600663164274,1.055002801247443,1.479808237148664,1.399015734812658,0.6064469617228175,1.089826353160179,1.62281836052011,1.260116633524007,0.3358941145020594,0.591335457075596,1.847329725653553,0.7204248758850219,0.3568953224254562,0.5319423379757814,0.6069310875697109,0.1088358648338183,-0.0107988402308618,-0.2431780749564451,-0.02901195210083518,780.0732600732601,817.5457875457876,781.2820512820513,788.9377289377289,606.8131868131868,-0.438782,0.124023,0.890930,-0.687866,-2.803802,-0.022430,362637.362637,137910989.010989,69372527.472527,66.915604,1,1,1,1,1,55.000000
2025-11-11 16:40:22.190,0.7986324206884364,0.5675080191061977,1.025755059884362,0.9002334490761615,0.615072012849336,0.4302067034386581,0.1008616172832315,0.7043221124537615,0.8685607269709482,0.4735081334628127,0.5533280006832211,1.032847445915066,0.4867504685108012,0.4349136903515781,0.2819882454303285,0.7159571176109557,0.1254265331250919,-0.03023103649725215,-0.3300958987152378,0.1478736940746044,798.2051282051282,796.5934065934066,791.3553113553114,792.5641025641025,849.7802197802198,-0.446045,0.129700,0.886047,-0.231781,-1.293488,-0.403748,361831.501832,138008498.168498,69553846.153846,67.845894,1,1,1,1,1,55.000000
2025-11-11 16:40:22.261,,,,,,,,,,,,,,,,,,,,,,,,,,,,,,,,,,,,,,,,,,/muse/elements/blink
2025-11-11 16:40:23.190,0.5899386523595442,0.639145551645865,0.7980364896894491,0.8496241107242121,0.5368093469511404,0.5588773259075903,0.03482080933093288,0.6361438640904394,0.4422003171249082,0.7423876116040103,0.5985767327440936,0.9966815304966445,0.2615640185134487,0.322868912537963,0.1891101403833687,0.7393760624752898,0.1458126618571323,0.0009997173808256475,-0.328253304981486,0.03213081100536716,786.1172161172161,804.2490842490843,784.5054945054945,782.893772893773,802.6373626373627,-0.441284,0.128296,0.889832,-0.814972,-2.504730,0.343933,364249.084249,137956923.076923,69674725.274725,70.153145,1,1,1,1,1,55.000000
2025-11-11 16:40:23.649,,,,,,,,,,,,,,,,,,,,,,,,,,,,,,,,,,,,,,,,,,/muse/elements/blink
2025-11-11 16:40:24.194,0.5899386523595442,0.7372164911969087,0.5356575642253744,0.8496241107242121,0.5368093469511404,0.3612760398907456,0.09423024162007414,0.6361438640904394,0.4422003171249082,0.7139565346523985,0.3839069105600413,0.9966815304966445,0.2615640185134487,0.3047614393714608,0.1294111310994258,0.7393760624752898,0.1458126618571323,-0.1121486990507552,-0.274749101615954,0.03213081100536716,796.996336996337,801.8315018315019,804.6520146520147,799.0109890109891,730.5128205128206,-0.441589,0.128540,0.885498,-0.755157,-2.444916,-0.112152,364249.084249,137834432.234432,69792380.952381,70.893845,1,1,1,1,1,55.000000
2025-11-11 16:40:25.191,0.9402345944628294,0.7278441429817876,0.752994550851479,0.8496241107242121,1.11805459982339,0.5684313819187066,0.2177862737039791,0.6361438640904394,1.444558652134031,0.7405594062179338,0.3981838772126942,0.9966815304966445,0.4425752693497069,0.1638539861536509,0.07411526232055581,0.7393760624752898,0.1143169140245632,0.1040964348257953,-0.1891036256703386,0.03213081100536716,781.6849816849817,794.5787545787546,796.1904761904763,786.5201465201466,1150.769230769231,-0.449402,0.135376,0.884888,-0.523376,-1.308441,-0.067291,365054.945055,137878754.578755,69901978.021978,68.777046,1,2,1,1,2,55.000000
2025-11-11 16:40:26.194,0.9614224313776993,0.5691299569706489,0.7182147034942432,0.8213989127398948,0.9697923656353036,0.5539754726912463,0.1827531989759717,0.8313855594059029,1.486185682811919,0.7571142245411215,0.5153124413935664,1.16218538416778,0.406906315083945,0.339157879823174,0.2356696181257157,0.5571888640541163,0.147330020315473,0.1053972321825732,-0.08772210124351909,0.06941585991880651,810.2930402930403,828.021978021978,785.3113553113553,816.3369963369963,854.6153846153846,-0.441589,0.134888,0.887817,-0.717773,-2.803802,-0.067291,363443.223443,137921465.201465,69964835.164835,67.289124,1,1,1,1,1,55.000000
2025-11-11 16:40:27.199,0.7291684796433293,0.8056900479133854,0.697366507153021,0.7185571273854453,0.6473009252528952,0.553412408807746,0.1916344928370543,0.3917828251787545,1.143876170478226,0.3019599997710909,0.6408407442194475,1.084466534797522,0.3267419654734602,0.4093250624380267,0.15471233747196,0.4766013353308721,0.1529693299671984,0.02418901739208893,-0.1987114614805732,0.1047155503266169,776.4468864468864,812.7106227106227,806.6666666666667,779.6703296703297,736.5567765567765,-0.444153,0.131042,0.892029,-0.829926,-2.302856,-0.201874,364249.084249,138109230.769231,70013992.673993,67.623611,1,1,1,1,1,55.000000
2025-11-11 16:40:28.190,0.7301708660408213,0.7075071335907869,0.9172609375162517,1.024018469608428,0.7747352086136969,0.7225042990741,0.2919896966551778,0.4462167027220927,0.6149882553609312,0.8371276607590259,0.4198347807923348,0.9417232990377239,0.1381886940316638,0.4205404431642505,0.05876698428856724,0.3670779138769908,-0.03573834873084463,-0.07567194574425511,-0.3067073003412377,0.08116942779321273,759.92673992674,798.2051282051282,788.1318681318681,762.7472527472528,896.9230769230769,-0.442322,0.134399,0.888916,-1.480408,-2.003784,0.740204,363443.223443,138363882.783883,70070402.930403,67.497314,1,1,1,1,1,55.000000
2025-11-11 16:40:29.190,0.7301708660408213,0.7407095583917456,0.8729359454549038,1.024018469608428,0.7747352086136969,0.4814980842051438,0.2620604263176184,0.4462167027220927,0.6149882553609312,0.8232410287085125,0.3323121241712987,0.9417232990377239,0.1381886940316638,0.3960089969421098,0.01499976853904357,0.3670779138769908,-0.03573834873084463,-0.1759915737640884,-0.2452203702483799,0.08116942779321273,724.8717948717949,782.0879120879121,819.5604395604396,729.7069597069598,784.1025641025641,-0.439331,0.128662,0.890625,-1.188812,-2.093506,0.560760,364249.084249,138278461.538462,70001904.761905,66.124435,1,1,1,1,1,55.000000
2025-11-11 16:40:29.469,,,,,,,,,,,,,,,,,,,,,,,,,,,,,,,,,,,,,,,,,,/muse/elements/blink
2025-11-11 16:40:29.834,,,,,,,,,,,,,,,,,,,,,,,,,,,,,,,,,,,,,,,,,,/muse/elements/blink
2025-11-11 16:40:30.190,0.7301708660408213,0.7894779848445515,0.5937019043078141,1.024018469608428,0.7747352086136969,0.5726402844204329,0.08482883776788135,0.4462167027220927,0.6149882553609312,0.4933658418745283,0.1773011867898699,0.9417232990377239,0.1381886940316638,0.3751783603066956,0.05357463090865178,0.3670779138769908,-0.03573834873084463,-0.1827322960781779,-0.2812704217036944,0.08116942779321273,799.4139194139194,821.5750915750916,797.3992673992674,762.3443223443223,611.6483516483516,-0.429565,0.125549,0.896240,-0.179443,-1.674805,-1.772003,365860.805861,138066520.146520,70023663.003663,64.007286,1,2,1,1,2,55.000000
2025-11-11 16:40:30.686,,,,,,,,,,,,,,,,,,,,,,,,,,,,,,,,,,,,,,,,,,/muse/elements/blink
2025-11-11 16:40:31.190,0.7301708660408213,0.9083110320504394,0.5935673011277189,1.024018469608428,0.7747352086136969,0.575116463895574,0.1786949550857678,0.4462167027220927,0.6149882553609312,0.4933658418745283,-0.126344213003322,0.9417232990377239,0.1381886940316638,0.4299406412879274,0.1034729353693273,0.3670779138769908,-0.03573834873084463,-0.2086395316279487,-0.187624119317587,0.08116942779321273,793.7728937728938,777.2527472527473,969.047619047619,763.1501831501831,1187.838827838828,-0.438049,0.121216,0.891174,-1.779480,0.702820,1.757050,365054.945055,137998827.838828,70068791.208791,62.633720,1,2,1,1,2,55.000000
2025-11-11 16:40:32.190,1.282861316774971,0.9083110320504394,0.5935673011277189,1.024018469608428,0.7072383980289131,0.575116463895574,0.1786949550857678,0.4462167027220927,0.8390136250225181,0.4933658418745283,-0.126344213003322,0.9417232990377239,0.8760917420674634,0.4299406412879274,0.1034729353693273,0.3670779138769908,0.7090799948917283,-0.2086395316279487,-0.187624119317587,0.08116942779321273,785.3113553113553,720.0366300366301,920.2930402930403,774.8351648351648,766.3736263736264,-0.424072,0.117554,0.892639,-0.433655,-3.005676,0.687866,365054.945055,138284102.564103,70209010.989011,62.319859,1,1,1,1,1,55.000000
2025-11-11 16:40:33.190,1.083559540588017,0.9083110320504394,0.5935673011277189,0.5561118475983438,0.5901041329263715,0.575116463895574,0.1786949550857678,0.4763203265910939,1.057105557587942,0.4933658418745283,-0.126344213003322,0.5853006958456431,0.7690806046685321,0.4299406412879274,0.1034729353693273,0.4639241896844444,0.641206858132955,-0.2086395316279487,-0.187624119317587,0.5339797288885451,782.4908424908425,809.8901098901099,874.7619047619048,777.2527472527473,647.5091575091575,-0.425720,0.119690,0.896057,-0.500946,-2.287903,-0.328979,366666.666667,138496043.956044,70371794.871795,62.439148,1,1,1,1,1,55.000000
2025-11-11 16:40:34.190,0.226142926257091,0.5415255499663407,0.9778733333237737,0.4379822036711102,0.3595730059005549,0.4153342385422985,0.5162897989479822,0.4527182140719128,1.404912997826839,0.4642509998960727,0.6187166711556057,1.105276568934531,0.5309712637994563,0.4458236156072263,-0.003318084019456138,0.5067143086140404,0.3825617567346282,0.0527579914620139,-0.2819339401265629,0.3396892816524468,778.0586080586081,828.4249084249085,884.0293040293041,754.6886446886447,751.8681318681319,-0.431702,0.117676,0.896606,-0.672913,-0.149536,-1.308441,367472.527473,138519413.919414,70445128.205128,63.172321,1,1,1,1,1,55.000000
2025-11-11 16:40:35.190,0.1195371239675746,0.488112078140863,0.9435021742666899,0.4628433727744717,0.2472973525328531,0.2135021569376084,0.5210437529191291,0.3877960683481165,0.9877882373817661,0.402926521659898,0.6171052876846023,0.9620006534236092,0.6119621855792456,0.4305831490471213,-0.01630451862919584,0.4804505408888509,0.3369351566441637,0.0648836256726484,-0.2792424131598317,0.1923532992113434,777.2527472527473,1144.725274725275,734.1391941391942,784.9084249084249,701.0989010989011,-0.391602,0.091125,0.898743,-3.693542,1.375732,10.018921,367472.527473,138487179.487179,70762637.362637,63.834404,1,1,1,1,1,55.000000
2025-11-11 16:40:36.190,0.3121196415370064,0.4444544987618099,0.9435021742666899,0.5251788560418731,0.2816877438815711,0.08798357272277761,0.5210437529191291,0.3962727143690837,0.7233462759271939,0.3570106897968914,0.6171052876846023,0.7673718848832866,0.6049410891542222,0.4014855622617845,-0.01630451862919584,0.4405917435466191,0.4362202638654424,0.06787772922109866,-0.2792424131598317,0.2301530880181996,798.2051282051282,810.6959706959707,832.4542124542124,756.3003663003664,812.7106227106227,-0.445007,0.124023,0.903076,0.912170,1.532745,1.345825,364249.084249,138206739.926740,70821465.201465,64.152939,1,1,1,1,1,55.000000
2025-11-11 16:40:36.957,,,,,,,,,,,,,,,,,,,,,,,,,,,,,,,,,,,,,,,,,,/muse/elements/blink
2025-11-11 16:40:37.190,0.3121196415370064,0.4444544987618099,0.9435021742666899,1.104731215725695,0.2816877438815711,0.08798357272277761,0.5210437529191291,0.7618906569161201,0.7233462759271939,0.3570106897968914,0.6171052876846023,1.014750311276954,0.6049410891542222,0.4014855622617845,-0.01630451862919584,0.9964572058296353,0.4362202638654424,0.06787772922109866,-0.2792424131598317,0.7443880435248081,748.6446886446887,865.0915750915751,1060.512820512821,755.4945054945055,772.014652014652,-0.446106,0.135986,0.881165,-2.295380,0.822449,2.250519,364249.084249,137955311.355311,70691721.611722,64.339531,1,1,1,1,1,55.000000
2025-11-11 16:40:38.190,0.3121196415370064,0.4444544987618099,0.9435021742666899,1.14971085440136,0.2816877438815711,0.08798357272277761,0.5210437529191291,0.8079639594299781,0.7233462759271939,0.3570106897968914,0.6171052876846023,0.9163670505180921,0.6049410891542222,0.4014855622617845,-0.01630451862919584,0.946494576493189,0.4362202638654424,0.06787772922109866,-0.2792424131598317,0.6953424244010726,717.2161172161173,736.5567765567765,760.7326007326008,713.5897435897436,678.1318681318681,-0.477417,0.144287,0.877991,1.091614,-3.013153,-1.218719,362637.362637,137628131.868132,70603076.923077,64.414169,1,1,1,1,1,55.000000
2025-11-11 16:40:39.189,0.3121196415370064,0.4444544987618099,0.9435021742666899,1.14971085440136,0.2816877438815711,0.08798357272277761,0.5210437529191291,0.8079639594299781,0.7233462759271939,0.3570106897968914,0.6171052876846023,0.9163670505180921,0.6049410891542222,0.4014855622617845,-0.01630451862919584,0.946494576493189,0.4362202638654424,0.06787772922109866,-0.2792424131598317,0.6953424244010726,705.1282051282052,718.8278388278388,1049.6336996337,706.7399267399268,626.5567765567765,-0.454285,0.133118,0.882874,-0.613098,-2.489777,-0.994415,362637.362637,137302564.102564,70509597.069597,66.138649,1,1,1,1,1,55.000000
2025-11-11 16:40:40.190,0.3121196415370064,0.4444544987618099,0.9435021742666899,1.14971085440136,0.2816877438815711,0.08798357272277761,0.5210437529191291,0.8079639594299781,0.7233462759271939,0.3570106897968914,0.6171052876846023,0.9163670505180921,0.6049410891542222,0.4014855622617845,-0.01630451862919584,0.946494576493189,0.4362202638654424,0.06787772922109866,-0.2792424131598317,0.6953424244010726,755.8974358974359,753.0769230769231,776.0439560439561,765.5677655677656,790.952380952381,-0.455261,0.142517,0.875916,0.403748,-4.635620,1.069183,364249.084249,136956043.956044,70446739.926740,69.231194,1,2,1,1,2,55.000000
2025-11-11 16:40:41.190,0.3121196415370064,0.4444544987618099,0.9435021742666899,1.14971085440136,0.2816877438815711,0.08798357272277761,0.5210437529191291,0.8079639594299781,0.7233462759271939,0.3570106897968914,0.6171052876846023,0.9163670505180921,0.6049410891542222,0.4014855622617845,-0.01630451862919584,0.946494576493189,0.4362202638654424,0.06787772922109866,-0.2792424131598317,0.6953424244010726,763.1501831501831,767.985347985348,804.6520146520147,780.4761904761905,579.0109890109891,-0.449097,0.129272,0.891541,0.448608,-0.373840,-0.142059,364249.084249,136649010.989011,70390329.670330,69.414703,1,2,1,1,2,55.000000
2025-11-11 16:40:42.190,0.3121196415370064,1.058941065657995,0.9636332276104798,1.14971085440136,0.2816877438815711,0.801408544792762,0.8651116467279332,0.8079639594299781,0.7233462759271939,0.9442790377293955,1.076485484479294,0.9163670505180921,0.6049410891542222,0.5129480246105819,0.4874414125520848,0.946494576493189,0.4362202638654424,0.05583343685072484,0.1078483132774456,0.6953424244010726,799.4139194139194,780.4761904761905,778.8644688644689,793.7728937728938,705.934065934066,-0.430725,0.137024,0.896606,-0.493469,-0.351410,-2.444916,367472.527473,136537802.197802,70433040.293040,68.044502,1,2,1,1,2,55.000000
2025-11-11 16:40:43.190,0.3121196415370064,1.033104758127164,0.864008556225461,1.14971085440136,0.2816877438815711,0.802541713093155,0.9656581852901205,0.8079639594299781,0.7233462759271939,0.9472684851399024,0.9254113100280494,0.9163670505180921,0.6049410891542222,0.5426499782615346,0.3180092748843126,0.946494576493189,0.4362202638654424,0.08762868839639708,0.02126684330893398,0.6953424244010726,808.2783882783883,786.5201465201466,840.9157509157509,846.1538461538462,1037.948717948718,-0.445679,0.144836,0.880798,-0.433655,-1.592560,-0.538330,366666.666667,136596630.036630,70461245.421245,66.913063,1,2,1,1,2,55.000000
2025-11-11 16:40:44.190,1.202115928921831,1.019387802079206,0.9849383105686498,1.439355272744393,1.02135789473863,0.9424080385891336,0.8794915983195285,1.330779112881271,1.060588873162931,0.9380890008707659,0.4442378579582757,1.192110907942252,0.7838122884848674,0.5886775704217668,0.3239462866018271,0.5922948868712453,0.4055145477221641,0.2314528004704525,0.09634083757462167,0.1873827487283557,892.0879120879121,777.6556776556777,821.978021978022,911.8315018315019,708.3516483516484,-0.429993,0.140869,0.897644,-0.418701,-1.786957,-0.366364,364249.084249,136797289.377289,70387912.087912,66.730339,1,1,1,1,1,55.000000
2025-11-11 16:40:44.278,,,,,,,,,,,,,,,,,,,,,,,,,,,,,,,,,,,,,,,,,,/muse/elements/blink
2025-11-11 16:40:45.190,1.202115928921831,1.005796150830621,0.9849383105686498,1.439355272744393,1.02135789473863,0.952738363065038,0.8794915983195285,1.330779112881271,1.060588873162931,0.9253627306003113,0.4442378579582757,1.192110907942252,0.7838122884848674,0.5771729657418316,0.3239462866018271,0.5922948868712453,0.4055145477221641,0.1580917864652572,0.09634083757462167,0.1873827487283557,807.0695970695971,789.7435897435897,766.7765567765568,801.8315018315019,817.1428571428571,-0.440796,0.141968,0.883667,-0.590668,-1.637421,0.366364,364249.084249,136627252.747253,70217069.597070,66.301659,1,1,1,1,1,55.000000
2025-11-11 16:40:45.586,,,,,,,,,,,,,,,,,,,,,,,,,,,,,,,,,,,,,,,,,,/muse/elements/blink
2025-11-11 16:40:46.196,1.202115928921831,0.956498433251271,0.9849383105686498,1.45735743568131,1.02135789473863,0.9435086995271577,0.8794915983195285,1.271465822194334,1.060588873162931,0.9151833345522752,0.4442378579582757,1.132215224926102,0.7838122884848674,0.5863913264112706,0.3239462866018271,0.5827251453106567,0.4055145477221641,0.09137004854118951,0.09634083757462167,0.1992444174883307,810.6959706959707,832.8571428571429,809.4871794871796,839.3040293040293,805.4578754578755,-0.449829,0.148438,0.876587,-0.680389,-0.276642,-0.411224,365054.945055,136744102.564103,70204175.824176,65.941139,1,1,1,1,1,55.000000
2025-11-11 16:40:47.198,1.49120920985638,0.956498433251271,0.9849383105686498,1.45735743568131,1.190675602189437,0.9435086995271577,0.8794915983195285,1.271465822194334,1.188341304044642,0.9151833345522752,0.4442378579582757,1.132215224926102,0.8654520442665088,0.5863913264112706,0.3239462866018271,0.5827251453106567,0.4377011914731038,0.09137004854118951,0.09634083757462167,0.1992444174883307,801.8315018315019,840.1098901098901,859.047619047619,827.2161172161173,657.985347985348,-0.461243,0.141235,0.870300,-0.426178,-2.190704,0.209351,364249.084249,136340366.300366,70050256.410256,64.871460,1,1,1,1,1,55.000000
2025-11-11 16:40:48.199,1.49120920985638,0.956498433251271,1.241527921470365,0.7372981601598597,1.190675602189437,0.9435086995271577,0.4874320706080127,0.74352878583083,1.188341304044642,0.9151833345522752,0.8637081825647975,1.298966321922323,0.8654520442665088,0.5863913264112706,0.5573373780471754,0.5409652741645429,0.4377011914731038,0.09137004854118951,0.06955123766024192,0.1741800561175554,774.0293040293041,825.2014652014652,828.021978021978,782.893772893773,694.2490842490843,-0.464355,0.139465,0.874207,-0.695343,-1.869202,0.044861,365860.805861,135870549.450549,69849597.069597,64.617622,1,1,1,1,1,55.000000
2025-11-11 16:40:49.190,0.9089132349423343,1.006324809430971,1.07620988295254,0.7910011211622417,0.8267291554775358,0.8726013810970282,0.4389557010637757,0.6725079145020113,1.40964001842889,0.9540101087203147,0.8924386588992379,1.374704271033856,0.5827392457835782,0.712750495219964,0.5688982226617975,0.5968530920863443,0.1546701924719273,0.1767740571162788,0.1192567282648689,0.1566122723717941,800.6227106227107,799.0109890109891,829.2307692307693,815.934065934066,993.6263736263736,-0.464478,0.141785,0.875122,-0.822449,-2.467346,0.381317,365054.945055,135625567.765568,69728717.948718,66.187828,1,1,1,1,1,55.000000
2025-11-11 16:40:50.190,1.195014387552266,1.075491413602498,0.9426889584441918,1.088081823728635,0.8015569302700218,0.7485473257543883,0.6990702704424036,0.7978362524804841,1.387189660303703,0.883508733760398,0.8792641924538289,1.290336587464303,0.5853491868488759,0.9353877549670958,0.5924331203547345,0.5980190652311285,0.2263451091969458,-0.1466466286732361,0.113994481907845,0.1941563837052087,794.5787545787546,750.2564102564103,814.3223443223443,805.0549450549451,724.4688644688645,-0.462708,0.147705,0.872864,-1.061707,-2.833710,-0.687866,365054.945055,135607032.967033,69738388.278388,68.331047,1,1,1,1,1,55.000000
2025-11-11 16:40:51.191,1.201315937109103,1.075491413602498,0.8189410508571854,1.236073868873223,0.6372076170196082,0.7485473257543883,0.6207944939968922,0.7893022850987371,0.7727218261770068,0.883508733760398,0.8002886469847038,0.8950112711022219,0.2288342020195362,0.9353877549670958,0.4914202588220409,0.4407328422215883,0.2060418256845414,-0.1466466286732361,0.04097667695975869,0.1570032853691856,772.4175824175825,755.4945054945055,920.6959706959707,759.92673992674,643.4798534798535,-0.456238,0.143860,0.882141,-0.463562,-1.988831,-0.912170,364249.084249,135745641.025641,69799633.699634,68.854881,1,1,1,1,1,55.000000
2025-11-11 16:40:52.191,1.201315937109103,1.075491413602498,0.7405792121439601,1.236073868873223,0.6372076170196082,0.7485473257543883,0.5145255732818109,0.7893022850987371,0.7727218261770068,0.883508733760398,0.6134806287495571,0.8950112711022219,0.2288342020195362,0.9353877549670958,0.389808500770789,0.4407328422215883,0.2060418256845414,-0.1466466286732361,-0.0223057091126677,0.1570032853691856,799.4139194139194,594.3223443223443,770,814.7252747252747,902.1611721611722,-0.424011,0.113159,0.899902,4.306641,-1.973877,1.689758,365054.945055,135855238.095238,69831062.271062,68.717453,1,1,1,1,1,55.000000
2025-11-11 16:40:53.191,1.139489553354091,1.075491413602498,0.7405792121439601,1.22560167427772,0.5040255138131573,0.7485473257543883,0.5145255732818109,0.4725229757295978,0.7630583404169718,0.883508733760398,0.6134806287495571,0.7720034385394647,0.5095814690966706,0.9353877549670958,0.389808500770789,0.59112309203087,0.07091869958882152,-0.1466466286732361,-0.0223057091126677,0.2340595873943148,821.5750915750916,647.5091575091575,833.2600732600733,799.4139194139194,663.6263736263736,-0.402649,0.141418,0.909912,-0.740204,-0.822449,0.800018,367472.527473,135677142.857143,69714212.454212,68.822632,1,1,1,1,1,55.000000
2025-11-11 16:40:54.191,1.154111363952165,1.075491413602498,0.7405792121439601,1.174160239124847,0.4817982854645704,0.7485473257543883,0.5145255732818109,0.4751052753981135,0.6014211679518466,0.883508733760398,0.6134806287495571,0.7024166254704615,0.4594972888123008,0.9353877549670958,0.389808500770789,0.6013227949842376,-0.03426994752705909,-0.1466466286732361,-0.0223057091126677,0.2315582731898424,830.8424908424909,776.0439560439561,812.7106227106227,805.4578754578755,748.6446886446887,-0.420593,0.138367,0.895813,-0.500946,-2.624359,0.261688,366666.666667,135760146.520147,69720659.340659,68.302979,1,1,1,1,1,55.000000
2025-11-11 16:40:55.191,1.126345565999433,1.075491413602498,0.8948168953122466,1.067625917185199,0.6794274272465355,0.7485473257543883,0.634122227985181,1.075259621553291,1.092338773749492,0.883508733760398,0.7978302776988428,0.7400411028050753,0.7070335894671996,0.9353877549670958,0.2324583214922603,0.3675565173495524,0.6253802596582394,-0.1466466286732361,-0.2111264176850677,0.476022938080694,800.6227106227107,771.6117216117216,790.5494505494506,799.8168498168499,789.3406593406594,-0.426270,0.156921,0.893921,-0.770111,-2.041168,-0.044861,365860.805861,135972893.772894,69752893.772894,68.137596,1,1,1,1,1,55.000000
2025-11-11 16:40:56.191,0.6186174526116702,0.7632133690921425,0.7925371280465822,0.9183971724661456,0.4744573954836475,0.5266912132266759,0.5659392869729106,0.8553688406128868,0.9243759074457417,0.5694945286944184,0.7994225589295224,0.948225911021165,0.3559010934023579,0.4931710516443906,0.2999380449887152,0.3299008349517647,0.3538011858042096,0.1717374827760521,-0.1607901649932243,0.3320604789933226,792.967032967033,781.2820512820513,815.1282051282052,785.7142857142858,720.4395604395604,-0.422119,0.152771,0.893616,-0.762634,-2.183228,0.007477,365054.945055,136230769.230769,69804468.864469,69.064827,1,1,1,1,1,55.000000
2025-11-11 16:40:57.192,0.937650316328993,0.966918120831101,0.5613678999263648,1.044074253332789,0.5834345927883462,0.7564583296517614,0.3588736467671263,0.6910384679240856,1.028453800861409,0.8457277472617331,0.1118246829535821,1.039564108858634,0.3602337122197301,0.4957864197631565,0.1556334288835217,0.1753713190036971,-0.01916624580474192,0.002172655201319452,-0.2561249809056224,0.108355410905727,797.8021978021978,803.4432234432235,810.2930402930403,798.6080586080586,783.2967032967033,-0.426880,0.150940,0.887939,-0.643005,-1.801910,-0.560760,368278.388278,136326666.666667,69788351.648352,71.497398,1,1,1,1,1,55.000000
2025-11-11 16:40:58.191,1.181362532897134,0.9750557399293783,0.3870870506835564,1.145478538634951,0.9766115210481321,0.647757047904937,-0.02814501906907458,0.8389049402001125,1.134568284201464,0.8233696677263047,0.164608229025306,0.9123908367819474,0.2771236754648679,0.4218988995806555,0.1400827727046068,0.1421888777749687,-0.008495471180761088,-0.02645101679177993,-0.1830479867984998,0.1195555452891871,790.5494505494506,792.967032967033,810.6959706959707,793.7728937728938,767.1794871794872,-0.414368,0.147949,0.898376,-0.680389,-2.048645,-0.239258,365860.805861,135929377.289377,69608644.688645,72.946098,1,1,1,1,1,55.000000
2025-11-11 16:40:59.194,1.274466521166388,0.9291364106246401,0.5839353481865748,1.170321383308106,0.9675379035329569,0.4910231391813877,0.1847071073987524,0.7707092355343068,1.103393377571628,0.6775899522726389,0.5003490725953392,0.7857418250922907,0.3540158698045439,0.3619666889932004,0.004967440275580549,0.2886255957345579,-0.04985233192306882,0.02329157755139467,-0.2227734259031728,0.05132118217770237,794.981684981685,784.1025641025641,800.2197802197802,795.7875457875458,698.6813186813187,-0.426880,0.147217,0.896545,-0.441132,-1.577606,0.022430,365054.945055,135478901.098901,69462783.882784,71.547005,1,1,1,1,1,55.000000
2025-11-11 16:41:00.197,1.141006623836581,0.724016833406068,0.5525856203490299,1.016025340651177,0.8598063165293043,0.3748408405811597,0.1953255999770713,0.7552721786010321,0.6580429408967514,0.7124883244322081,0.4745435384552843,0.5864194271668264,0.3488431122842935,0.229556338881697,-0.07402104879392957,0.1668807556263943,-0.1161765942619015,0.03416434340082579,-0.3613857500826794,0.06680277587919767,792.1611721611722,785.7142857142858,807.8754578754579,784.5054945054945,686.5934065934066,-0.418579,0.140747,0.904480,-0.927124,-2.572021,-0.157013,365054.945055,135517582.417582,69482124.542125,70.226799,1,1,1,1,1,55.000000
2025-11-11 16:41:01.191,1.347412066077011,0.5407695277542367,0.4487879342468332,1.438361136631601,0.8181897124783511,0.5111047825388719,0.1433250265313041,0.8271250880466223,0.7403159160127645,0.5115536369206063,0.3469941759862513,0.6389942069447031,0.3839036574100008,0.3181811742668805,0.1111110652264193,0.215037295425333,-0.00435891110505789,-0.06076699091558713,-0.4616444620926702,-0.00764618233544221,798.2051282051282,784.9084249084249,805.0549450549451,801.4285714285714,867.9120879120879,-0.403809,0.084717,0.911255,3.985138,-2.108459,0.687866,366666.666667,135934212.454212,69614285.714286,69.184998,1,1,1,1,1,55.000000
2025-11-11 16:41:02.191,1.22281346579694,0.718514112731779,0.7355398427576948,1.240343413305747,0.8440172050393493,0.6338926912298535,-0.1330447427751426,0.8598901012354988,1.151476745964363,0.2807338058252376,0.2587616820175579,1.153048023430704,0.3901819791348986,0.4770960204073626,0.09108863747211203,0.2831692095351994,0.1513354690843552,-0.09275039688087572,-0.4915075189841274,0.06992329489550933,811.5018315018315,807.0695970695971,779.2673992673992,794.1758241758242,557.2527472527472,-0.400391,0.117493,0.911682,-0.598145,-2.026215,0.650482,366666.666667,136301684.981685,69692454.212454,67.861832,1,1,1,1,1,55.000000
2025-11-11 16:41:03.190,1.184714959783782,0.9292321274548239,1.039656330945056,1.124167846119243,0.6769351568738011,0.7850439482445339,-0.02410326717858909,0.6386808822991072,1.249654352387213,0.05018682489579616,0.4512477254972742,1.107361006852243,0.3332201872007549,0.4634052863932044,0.09557941024686678,0.2267737908853392,0.1292427247447973,-0.05121706770573654,-0.4208238459642135,0.001042514743838119,794.981684981685,849.3772893772895,813.919413919414,795.3846153846154,1045.201465201465,-0.388611,0.122681,0.911377,-0.463562,-2.721558,-0.044861,368278.388278,136289597.069597,69689230.769231,68.660133,1,1,1,1,1,55.000000
2025-11-11 16:41:04.191,1.421042934271297,1.155268560662988,1.035845201044666,1.301796089288137,1.047555824111987,0.4200837220899888,0.215027307853077,1.00281176518084,1.272700956241553,0.8125050945585218,0.4379278797036243,1.215376849180923,0.4450007720460946,0.4036505775866404,0.1527963624561843,0.3110328716605791,0.1258065505005984,-0.08745427630600179,-0.3165931864226212,-0.08761071850364847,807.4725274725275,782.0879120879121,840.5128205128206,807.0695970695971,863.4798534798535,-0.393555,0.127136,0.907837,-0.201874,-1.271057,0.643005,366666.666667,135731941.391941,69520000.000000,70.002792,1,1,1,1,1,55.000000
2025-11-11 16:41:05.191,1.33220258661645,0.9698848368528377,0.845684747737863,1.265160197262836,1.14897640266291,0.6784683655051834,0.5252968292324396,1.032691799685348,1.339764690377067,0.8403203540682872,0.7454121304505162,1.349007304180488,0.3544993594171078,0.4023704866776562,0.5984885565161515,0.3654768551000494,0.1383731529777269,-0.1374620554686699,-0.1246119541935991,0.04463339904446527,805.4578754578755,788.1318681318681,851.7948717948718,810.2930402930403,788.5347985347986,-0.401428,0.129700,0.902222,-0.785065,-0.695343,0.149536,365860.805861,134825347.985348,69223443.223443,70.612427,1,1,1,1,1,55.000000
2025-11-11 16:41:06.191,1.113202026632793,0.8627758961763075,0.9003475037667157,1.161956069061108,0.8636545360664896,0.5944627055668886,0.4727935903090231,0.8319079729222323,1.317449302206043,0.8339047208510795,0.7237948051075117,1.179298682638257,0.4419458761406434,0.4021230401568369,0.5933102934305593,0.4068390938483676,0.07712798849234741,-0.1349815296723312,-0.09987126310970401,0.1674187568789053,796.5934065934066,792.1611721611722,811.5018315018315,796.1904761904763,1041.978021978022,-0.406982,0.136902,0.902954,-0.328979,-2.736511,0.590668,365054.945055,134565860.805861,69197655.677656,71.329140,1,1,1,1,1,55.000000
2025-11-11 16:41:07.195,0.8349978239629366,0.7258220069563742,0.597962514905051,0.8836705152402182,0.4254781812032963,0.4194345908847598,0.2326235832301688,0.5339190934047139,1.099913192411309,0.7182985768887014,0.2638480955950371,1.06591266716655,0.4911817615930081,0.4157865398667074,0.3792801664647262,0.4101923274669164,-0.06802249216037992,-0.06925312061998874,-0.07020910545869262,0.09304866102525391,812.3076923076924,792.5641025641025,859.8534798534798,799.4139194139194,943.6630036630037,-0.397766,0.140503,0.907227,-0.822449,-1.951447,-0.590668,365054.945055,134625494.505495,69274212.454212,70.806503,1,1,1,1,1,55.000000
2025-11-11 16:41:08.194,0.8826103227986224,0.9353677406772741,0.6373912416862102,0.9312939848096117,0.7904173350815535,0.5239140836533125,0.2913182076738378,0.7249473069887861,1.028705218971221,0.541278772725173,0.2085690845176507,0.88393049785735,0.4280206685515947,0.3698594295482596,0.2944749713204052,0.3165451690931834,-0.01082021578115688,0.09873086917275761,-0.0778909716585594,0.06799124688694633,794.1758241758242,776.4468864468864,790.5494505494506,786.1172161172161,738.5714285714286,-0.401794,0.134949,0.906311,-0.433655,-1.622467,-0.201874,364249.084249,134976043.956044,69452307.692308,70.682861,1,1,1,1,1,55.000000
2025-11-11 16:41:09.199,1.199142220183618,0.9029930003545894,0.6341739392425894,1.192407173803364,0.6760838725982422,0.5509440677227864,0.3200601294647117,0.7403652893142794,1.07913044404819,0.6370848037236972,0.1339782532402054,1.005940665010215,0.4277129633861289,0.4370637243098965,0.132641547375409,0.4339846421792204,-0.0678254509896129,-0.02261626648494245,-0.136832628688694,-0.04611806417820134,768.7912087912088,770,822.3809523809524,786.9230769230769,780.4761904761905,-0.401123,0.135010,0.901733,-0.904694,-1.801910,-0.179443,365860.805861,135366886.446886,69628791.208791,69.966545,1,1,1,1,1,55.000000
2025-11-11 16:41:10.191,1.447094106192149,0.6948565302962185,0.9072852770370099,1.267132901437457,0.8092505475739931,0.5700252442865178,-0.1213823326834668,0.7284062519402386,1.082926717442481,0.7980395339358488,0.3463822489033087,1.054525122798529,0.4797561311281816,0.3256086199081729,0.1336220287526868,0.4675420474728517,-0.009158742100949109,-0.1499990064724083,-0.3454524532757899,-0.1120426145727859,809.8901098901099,801.4285714285714,804.6520146520147,791.3553113553114,704.7252747252747,-0.399231,0.135193,0.913391,-0.538330,-2.295380,-0.201874,365054.945055,135460366.300366,69627985.347985,68.852325,1,1,1,1,1,55.000000
2025-11-11 16:41:11.191,1.044601120896062,0.8285885953561761,0.5432616085874798,1.056552022383008,0.5083184410171873,0.6658556876787021,-0.00915737479867162,0.4214276134087344,1.004485775707288,0.6671431673338424,0.1229513656517603,0.9756312119300466,0.2819309536645294,0.2906270521507051,-0.04513117195087944,0.366359900611845,-0.1530420845053953,-0.1724515406386996,-0.3956560717670678,0.03567327774873406,812.7106227106227,823.5897435897436,805.8608058608058,814.7252747252747,602.3809523809524,-0.393311,0.136169,0.902710,-0.418701,-2.743988,-0.224304,364249.084249,135415238.095238,69567545.787546,68.921043,1,1,1,1,1,55.000000
2025-11-11 16:41:12.193,1.190830843205717,1.162464755028319,0.241736434466829,1.103975960457964,0.9732658934035034,0.6408111580194417,-0.1396177209797408,0.8690478714115066,1.13874446081538,0.5633807500124507,0.1325943159654202,1.105197835075143,0.3324977070338434,0.2512275339922155,-0.06112245424088408,0.3791783217102025,-0.2882269052517951,-0.1712811782819344,-0.330805391523515,-0.02949268164299002,816.3369963369963,791.7582417582418,798.6080586080586,810.2930402930403,994.0293040293041,-0.412415,0.133118,0.901184,-0.732727,-1.398163,-0.097198,365054.945055,135478901.098901,69557875.457875,68.436363,1,1,1,1,1,55.000000
2025-11-11 16:41:13.195,1.322494701422901,0.9080752682551397,0.450775761525614,1.239495495306229,0.9296025878447632,0.6811323894951058,-0.07535219399105866,0.8430173656068881,1.071817413075304,0.6086564395621342,0.02245425485937557,1.089815512697154,0.3686234248936428,0.2500495518471477,-0.06916954967123012,0.3585022904701063,-0.1365050017364194,-0.04615083682413306,-0.2722352745125523,0.04387658421255323,807.8754578754579,808.2783882783883,800.2197802197802,809.0842490842491,750.6593406593407,-0.402222,0.134338,0.906067,-0.777588,-2.325287,-0.119629,365054.945055,135539340.659341,69545787.545788,68.370201,1,1,1,1,1,55.000000
2025-11-11 16:41:14.196,1.148668583945445,0.7156723761339983,0.5730293282726298,1.089921099218404,0.6561258913920877,0.4593651974791175,0.2145187118667881,0.504839018936403,1.191215316378159,0.4383916629666473,0.3840142394370784,1.1736285154047,0.37776427265143,0.2048037162964284,-0.04739150826673579,0.4355201023167778,0.08952814405645446,0.02509918046301549,-0.3084268130280116,0.1880950850930359,813.1135531135532,785.3113553113553,796.5934065934066,804.2490842490843,800.6227106227107,-0.411865,0.131958,0.900940,-0.657959,-1.794434,0.119629,365054.945055,135822197.802198,69564322.344322,69.072266,1,1,1,1,1,55.000000
2025-11-11 16:41:15.199,0.964921392907408,0.7314928126539132,0.2688226265227738,0.8992453737443139,0.873702242692404,0.4788349659058292,-0.004192908737284008,0.8631214309175274,1.0837489707399,0.6260396116701211,0.3720831955601316,1.169992253165983,0.3316090836189925,0.2025679741176719,-0.1666138916525895,0.3736244512808868,0.0631096715800709,-0.03303559066741759,-0.3673561494369512,0.0651195879904066,796.1904761904763,793.3699633699634,808.6813186813187,779.6703296703297,832.8571428571429,-0.398376,0.133667,0.909973,-0.680389,-2.190704,0.067291,366666.666667,135926959.706960,69573186.813187,69.038177,1,1,1,1,1,55.000000
2025-11-11 16:41:16.199,1.034327530199174,0.7910913856091816,0.9674833392657742,0.9481446872461411,0.9869138221303806,0.6228641372878919,0.04423916390081087,0.9579609710522873,0.7730688698446514,0.5790667388475936,0.5787409026796319,0.8788430708453965,0.3836062039167244,0.2388785994277487,-0.06899643053490766,0.2189609326231356,-0.00861319326469134,-0.03081032416291218,-0.1615378475764323,-0.09715796546308364,785.7142857142858,780.8791208791209,839.3040293040293,805.4578754578755,680.5494505494506,-0.402344,0.137939,0.910278,-0.164490,-1.263580,0.336456,365860.805861,136034945.054945,69568351.648352,69.734459,1,1,1,1,1,55.000000
2025-11-11 16:41:17.191,0.8882815361237473,0.882279025601339,1.181283352612279,1.071988469496942,0.7212702403148378,0.7886120266539686,0.6748414087998369,0.7891343451343229,0.2427413950287341,0.5540102556055145,0.6522376499664625,0.4346586445793209,0.3224352327231841,0.3128661726600395,-0.1292351369809115,0.3817427906221119,-0.08819274197052684,0.04670967239879949,-0.2249906288483556,-0.1960305969700055,801.8315018315019,811.0989010989011,807.4725274725275,796.1904761904763,650.3296703296703,-0.403381,0.133728,0.905212,-0.859833,-2.235565,-0.433655,366666.666667,135870549.450549,69497435.897436,70.684151,1,1,1,1,1,55.000000
2025-11-11 16:41:18.191,0.6140620386592361,0.9370455072080546,0.8039199279954475,0.6906272867558474,0.5529185409667096,0.4945385070952217,0.4469095534596556,0.4148087841129902,0.5383227629675876,0.6363623793053017,0.4730306202039102,0.5339200523219071,0.3539678868872165,0.2717604213064978,-0.1258015611543813,0.3922651749286085,-0.1715838813375854,0.02137284215137441,-0.4287493058641954,-0.02900982459731826,811.5018315018315,803.040293040293,798.2051282051282,814.7252747252747,1116.117216117216,-0.400879,0.141785,0.908386,-0.433655,-0.740204,-0.029907,366666.666667,135932600.732601,69431355.311355,70.021469,1,1,1,1,1,55.000000
2025-11-11 16:41:19.191,0.3368706351839715,0.8068026892413299,0.04742168092786669,-0.05766805437865765,-0.05014037222408229,0.303136008894449,-0.3393041105187492,-0.06046801826507376,0.6298688434674053,0.5191373242063875,-0.006573819937981967,0.4907975045109811,0.2063950204158899,0.2827290331598689,-0.1316010299054288,0.3581629807077157,-0.04866537354343894,0.03206448015451282,-0.43556046193062,0.1210125360949864,790.5494505494506,826.4102564102565,812.3076923076924,794.5787545787546,696.6666666666667,-0.409973,0.136353,0.902832,-0.897217,-2.721558,-0.530853,365054.945055,135983369.963370,69400732.600733,69.710281,1,1,1,1,1,55.000000
2025-11-11 16:41:19.709,,,,,,,,,,,,,,,,,,,,,,,,,,,,,,,,,,,,,,,,,,/muse/elements/blink
2025-11-11 16:41:20.191,0.4616783730293895,0.8846753099096786,0.8055821172955575,-0.1421108289381623,-0.04746534158829738,0.5509810296862631,0.5749565582786854,-0.06520490092416151,0.7147198825604185,0.45960861011891,0.3438353022965294,0.2853937013936527,0.08352172221273041,0.179532677278522,-0.2575793153858974,0.3242225261040638,0.07294949824198795,-0.1204016409660255,-0.4716685169714626,0.2228384748746975,793.3699633699634,820.3663003663004,803.040293040293,775.6410256410256,662.8205128205128,-0.400330,0.141235,0.905212,-0.859833,-2.033691,0.194397,365054.945055,136080073.260073,69382197.802198,69.447395,1,1,1,1,1,55.000000
2025-11-11 16:41:21.191,-0.2120765752785829,0.5831180683632547,0.8741778761652143,-0.1705157982093803,0.09843856691434033,0.4363880237909853,0.7425101352044752,-0.1711245576255448,0.6270420753702204,0.4412065657659378,0.204562311477428,0.1798736159903924,0.2115583851576026,0.1820803487738695,-0.103939126050596,0.4115800585646273,-0.2007338332261666,-0.1292765070034303,-0.5232136943789096,0.2408761207369854,793.3699633699634,801.8315018315019,796.5934065934066,792.1611721611722,754.6886446886447,-0.399963,0.144653,0.900269,-0.822449,-3.043060,-0.209351,365860.805861,136171941.391941,69337069.597070,69.409859,1,1,1,1,1,55.000000
2025-11-11 16:41:22.191,0.8213612865389632,1.004186069971284,1.006117584711166,-0.2027482383144875,0.7331808608947324,0.5813275081574449,0.7003654096652755,0.1452183397879219,0.877799751520647,0.6632392851193669,0.3755741388546967,0.1938655359817835,0.3458582693705566,0.2285599465208084,0.1107462270636214,0.3328949832961767,-0.06172447191658692,-0.07021841194155397,-0.4681160485394483,-0.08907247894414917,796.996336996337,799.0109890109891,790.5494505494506,799.4139194139194,668.8644688644689,-0.393066,0.143738,0.914246,-0.927124,-1.637421,-0.351410,365860.805861,136221904.761905,69308058.608059,69.369957,1,1,1,1,1,55.000000
2025-11-11 16:41:23.074,,,,,,,,,,,,,,,,,,,,,,,,,,,,,,,,,,,,,,,,,,/muse/elements/blink
2025-11-11 16:41:23.191,0.9884689744652497,0.9085010026437147,1.116039443558863,0.6899086469466343,0.8928131757217714,0.5080627093169123,0.5645056496591747,0.8031437459488453,0.9071555330440031,0.6184495733469624,0.3721296764061202,0.7538349987555939,0.5567974035232138,0.2598960105844667,0.07463566721952375,0.4874701957026233,0.1207446459971396,0.1126537401272702,-0.2638645160300941,0.04099117823074354,809.0842490842491,802.2344322344322,805.0549450549451,809.8901098901099,673.2967032967033,-0.399658,0.140442,0.908875,-0.246735,-2.355194,0.441132,365054.945055,136003516.483516,69300805.860806,68.769409,1,1,1,1,1,55.000000
2025-11-11 16:41:23.969,,,,,,,,,,,,,,,,,,,,,,,,,,,,,,,,,,,,,,,,,,/muse/elements/blink
2025-11-11 16:41:24.191,0.664086798319203,0.2414483841182609,0.8637838274426488,0.6899086469466343,0.6128520069135923,0.3018965354627724,0.2785859063762069,0.8031437459488453,0.6858929880528858,0.3056974209642436,0.470145624433595,0.7538349987555939,0.5791890956615151,0.2249429176549938,-0.03785327033054914,0.4874701957026233,0.1592854316635654,0.2031546362332531,-0.2305128066293058,0.04099117823074354,803.040293040293,815.5311355311355,788.9377289377289,796.5934065934066,686.996336996337,-0.395996,0.139648,0.908386,-0.762634,-1.996307,-0.590668,365054.945055,135661025.641026,69270989.010989,69.066055,1,1,1,1,1,55.000000
2025-11-11 16:41:25.194,0.664086798319203,0.2414483841182609,0.689265392821698,0.6899086469466343,0.6128520069135923,0.3018965354627724,0.4293384623667161,0.8031437459488453,0.6858929880528858,0.3056974209642436,0.477941109016933,0.7538349987555939,0.5791890956615151,0.2249429176549938,-0.04258241731031048,0.4874701957026233,0.1592854316635654,0.2031546362332531,-0.4566925342759323,0.04099117823074354,823.1868131868132,806.6666666666667,790.952380952381,805.4578754578755,673.6996336996338,-0.388550,0.138550,0.909546,-0.620575,-0.986938,0.179443,364249.084249,135346739.926740,69222637.362637,68.225540,1,1,1,1,1,55.000000
2025-11-11 16:41:26.198,1.314685984378505,0.7712622482694594,0.6619598055067144,0.9690923824468722,0.7207431553098997,0.7068417669705169,0.5517021659255988,0.5174030318616193,1.232480701255887,0.6838612391167429,0.4100237656641493,0.8101782799997741,0.7422868409804873,0.4020345683624942,0.237864124459128,0.6176344595470462,0.2816442681642362,-0.2844262870287599,0.1528828131063411,0.5584536140800658,817.948717948718,821.1721611721612,807.0695970695971,819.96336996337,746.2271062271062,-0.397766,0.146606,0.907532,-0.291595,-2.355194,0.149536,365860.805861,135068717.948718,69258095.238095,67.525940,1,1,1,1,1,55.000000
2025-11-11 16:41:27.197,0.8278905012979874,0.9843963013420066,0.5584080895203707,0.8205891106660853,0.5115457440431468,0.6921471274314716,0.04946168108328348,0.4135489676566529,1.247214660394006,0.5837528277845385,0.4645321886759067,0.8850040665508599,0.6243605986117705,0.4358951552698165,0.4972480452373191,0.6692122371147312,0.2589112686876383,-0.2379299337339238,0.2917380080371619,0.5290954064435834,800.2197802197802,800.2197802197802,801.8315018315019,799.4139194139194,896.9230769230769,-0.396118,0.146851,0.909302,-0.575714,-2.594452,0.059814,364249.084249,135034871.794872,69358827.838828,67.003029,1,1,1,1,1,55.000000
2025-11-11 16:41:28.190,0.2810418250980491,0.9843963013420066,0.7150702768078609,0.167829790233683,0.1956751277252495,0.6921471274314716,0.2267687949649557,0.1395755310370549,0.8529559119401813,0.5837528277845385,0.4952608138570053,0.7023881092075583,0.5607721007877099,0.4358951552698165,0.2138497478661131,0.6075297754860144,0.4961566831373539,-0.2379299337339238,0.07929852585323943,0.4929647667961208,805.8608058608058,808.6813186813187,791.7582417582418,788.1318681318681,668.8644688644689,-0.391968,0.149658,0.905273,-0.553284,-2.123413,0.575714,365860.805861,135077582.417582,69401538.461538,67.003204,1,1,1,1,1,55.000000
2025-11-11 16:41:28.658,,,,,,,,,,,,,,,,,,,,,,,,,,,,,,,,,,,,,,,,,,/muse/elements/blink
2025-11-11 16:41:28.934,,,,,,,,,,,,,,,,,,,,,,,,,,,,,,,,,,,,,,,,,,/muse/elements/blink
2025-11-11 16:41:29.191,,,,,,,,,,,,,,,,,,,,,,,,,,,,,,,,,,,,,,,,,,/muse/elements/blink
2025-11-11 16:41:29.200,0.3761663866389645,0.9843963013420066,0.9537917603556253,0.4600271160366873,0.07735484613264211,0.6921471274314716,0.3531953566999331,0.616939928338977,0.5686183068789913,0.5837528277845385,0.2595217633978593,0.3773071535604169,0.4533215534055858,0.4358951552698165,0.003811342338531513,0.5777557921195711,0.4835905660661818,-0.2379299337339238,-0.1097536895654465,0.4590913179082579,826.4102564102565,836.0805860805862,796.996336996337,826.8131868131868,856.2271062271062,-0.385193,0.149902,0.907349,-0.471039,-1.921539,0.269165,366666.666667,135221831.501832,69440219.780220,67.180305,1,1,1,1,1,55.000000
2025-11-11 16:41:29.891,,,,,,,,,,,,,,,,,,,,,,,,,,,,,,,,,,,,,,,,,,/muse/elements/blink
2025-11-11 16:41:30.062,,,,,,,,,,,,,,,,,,,,,,,,,,,,,,,,,,,,,,,,,,/muse/elements/blink
2025-11-11 16:41:30.191,0.3761663866389645,0.9843963013420066,0.9537917603556253,0.6356907538021165,0.07735484613264211,0.6921471274314716,0.3531953566999331,0.8018014616976793,0.5686183068789913,0.5837528277845385,0.2595217633978593,0.3547216681186712,0.4533215534055858,0.4358951552698165,0.003811342338531513,0.6600301879570929,0.4835905660661818,-0.2379299337339238,-0.1097536895654465,0.4748113420576161,706.3369963369963,809.8901098901099,814.7252747252747,693.040293040293,724.0659340659341,-0.389221,0.155273,0.905640,0.142059,-1.749573,-1.233673,365860.805861,135397509.157509,69470842.490842,67.761192,1,1,1,1,1,55.000000
2025-11-11 16:41:30.404,,,,,,,,,,,,,,,,,,,,,,,,,,,,,,,,,,,,,,,,,,/muse/elements/blink
2025-11-11 16:41:30.681,,,,,,,,,,,,,,,,,,,,,,,,,,,,,,,,,,,,,,,,,,/muse/elements/blink
2025-11-11 16:41:30.916,,,,,,,,,,,,,,,,,,,,,,,,,,,,,,,,,,,,,,,,,,/muse/elements/blink
2025-11-11 16:41:31.191,0.3761663866389645,1.629324590444937,1.556734210789672,0.6356907538021165,0.07735484613264211,1.590105095039019,1.356620706550577,0.8018014616976793,0.5686183068789913,1.097615954679486,0.7523575371941954,0.3547216681186712,0.4533215534055858,0.435527923836132,0.2039765501092568,0.6600301879570929,0.4835905660661818,-0.0316364834002754,-0.3116200194534927,0.4748113420576161,791.7582417582418,791.7582417582418,813.919413919414,804.6520146520147,631.7948717948718,-0.382507,0.157715,0.911316,-0.127106,-1.502838,-0.598145,365860.805861,135639267.399267,69557069.597070,67.631271,1,1,1,1,1,55.000000
2025-11-11 16:41:31.278,,,,,,,,,,,,,,,,,,,,,,,,,,,,,,,,,,,,,,,,,,/muse/elements/blink
2025-11-11 16:41:31.707,,,,,,,,,,,,,,,,,,,,,,,,,,,,,,,,,,,,,,,,,,/muse/elements/blink
2025-11-11 16:41:31.900,,,,,,,,,,,,,,,,,,,,,,,,,,,,,,,,,,,,,,,,,,/muse/elements/blink
2025-11-11 16:41:32.191,0.3761663866389645,1.572058730056058,1.499002494953276,0.6356907538021165,0.07735484613264211,1.21565600683481,1.247234347226978,0.8018014616976793,0.5686183068789913,1.117113006991266,0.8546303092442153,0.3547216681186712,0.4533215534055858,0.5428048310426824,0.08321269884001961,0.6600301879570929,0.4835905660661818,-0.05435132891175057,-0.3395583229141489,0.4748113420576161,792.1611721611722,812.3076923076924,811.9047619047619,787.3260073260074,856.2271062271062,-0.381042,0.156311,0.906372,-0.747681,-2.175751,0.089722,365054.945055,135583663.003663,69542564.102564,67.066101,1,2,1,1,2,55.000000
2025-11-11 16:41:32.923,,,,,,,,,,,,,,,,,,,,,,,,,,,,,,,,,,,,,,,,,,/muse/elements/blink
2025-11-11 16:41:33.191,0.3761663866389645,1.240449079132379,1.469092084323982,0.6356907538021165,0.07735484613264211,0.9042144488348258,1.323781889977599,0.8018014616976793,0.5686183068789913,1.028946106212461,0.861212995752322,0.3547216681186712,0.4533215534055858,0.3619277919799989,-0.04022299974474758,0.6600301879570929,0.4835905660661818,-0.07188064262698635,-0.3618164002059143,0.4748113420576161,813.1135531135532,813.1135531135532,786.9230769230769,809.4871794871796,771.6117216117216,-0.375793,0.161316,0.916321,-0.463562,-2.003784,-0.545807,364249.084249,135226666.666667,69433772.893773,67.403107,1,2,1,1,2,55.000000
2025-11-11 16:41:34.191,0.3761663866389645,1.189824890444814,1.067427376076501,0.6356907538021165,0.07735484613264211,0.9971765821073301,0.7544829522057293,0.8018014616976793,0.5686183068789913,1.099917806751224,0.481544167846746,0.3547216681186712,0.4533215534055858,0.3060790523638791,-0.139031927078862,0.6600301879570929,0.4835905660661818,-0.1167882222107599,-0.3885751999832249,0.4748113420576161,811.5018315018315,829.6336996336996,774.4322344322345,803.040293040293,664.0293040293041,-0.372314,0.161194,0.916321,-0.777588,-2.310333,0.067291,365860.805861,134953479.853480,69378168.498168,67.072853,1,2,1,1,2,55.000000
2025-11-11 16:41:35.191,0.3761663866389645,1.017321006569085,0.9767479105926807,1.033715623609098,0.07735484613264211,0.4534120057743118,0.5920406227711592,0.8496494399520592,0.5686183068789913,0.6919518109855799,0.475933848594776,0.9155372648580294,0.4533215534055858,0.3433295242763379,-0.1763076646766907,0.7295150595404909,0.4835905660661818,-0.1753011136782323,-0.3097439770221587,0.185429232508287,815.1282051282052,817.948717948718,811.5018315018315,821.5750915750916,823.5897435897436,-0.368958,0.155457,0.913025,-0.456085,-2.886047,0.119629,365054.945055,134691575.091575,69364468.864469,66.667236,1,1,1,1,1,55.000000
2025-11-11 16:41:35.286,,,,,,,,,,,,,,,,,,,,,,,,,,,,,,,,,,,,,,,,,,/muse/elements/blink
2025-11-11 16:41:36.191,0.3761663866389645,0.8574082269973486,0.5581176194329081,1.198049210193288,0.07735484613264211,0.490336401975516,0.1421446557222746,0.7482632983094235,0.5686183068789913,0.4996769765721543,0.1629972274502584,0.406969014939909,0.4533215534055858,0.2339492520875806,-0.1033213400567443,0.6264531512485934,0.4835905660661818,-0.2393347731008081,-0.4280964225828636,0.284925601414344,820.3663003663004,808.2783882783883,797.3992673992674,811.0989010989011,586.6666666666666,-0.371216,0.155090,0.915405,-0.381317,-2.594452,-0.336456,365054.945055,134825347.985348,69457142.857143,67.073074,1,1,1,1,1,55.000000
2025-11-11 16:41:37.194,0.3761663866389645,0.7408537096589138,0.7284263478085613,1.198049210193288,0.07735484613264211,0.6418303451156048,0.2527327817240265,0.7482632983094235,0.5686183068789913,0.3378506064150815,0.2675457670143433,0.406969014939909,0.4533215534055858,0.1940459552506484,-0.09226721355492204,0.6264531512485934,0.4835905660661818,-0.1196307579231716,-0.4244186905100413,0.284925601414344,796.996336996337,806.2637362637363,805.0549450549451,793.7728937728938,1012.967032967033,-0.371948,0.157104,0.915283,-0.762634,-2.175751,-0.254211,365054.945055,134953479.853480,69610256.410256,66.906830,1,1,1,1,1,55.000000
2025-11-11 16:41:37.841,,,,,,,,,,,,,,,,,,,,,,,,,,,,,,,,,,,,,,,,,,/muse/elements/blink
2025-11-11 16:41:38.191,0.3761663866389645,0.7330176200535626,1.068883015656764,1.198049210193288,0.07735484613264211,0.7078380559749129,0.3122160773408926,0.7482632983094235,0.5686183068789913,0.2291532937728431,0.2414203224469915,0.406969014939909,0.4533215534055858,0.2951136944434124,-0.02928561639696221,0.6264531512485934,0.4835905660661818,-0.03101250699786327,-0.3260588959507026,0.284925601414344,796.1904761904763,795.7875457875458,792.5641025641025,806.6666666666667,876.3736263736264,-0.375061,0.156189,0.918030,-0.500946,-1.914062,-0.441132,365054.945055,135088058.608059,69709377.289377,66.361603,1,2,1,1,2,55.000000
2025-11-11 16:41:39.191,0.3761663866389645,0.7330176200535626,0.5422796953955307,1.198049210193288,0.07735484613264211,0.7078380559749129,-0.3603430928112163,0.7482632983094235,0.5686183068789913,0.2291532937728431,0.327927226211967,0.406969014939909,0.4533215534055858,0.2951136944434124,0.002232469709351891,0.6264531512485934,0.4835905660661818,-0.03101250699786327,-0.3289037013385226,0.284925601414344,779.6703296703297,820.3663003663004,798.6080586080586,795.3846153846154,608.021978021978,-0.373718,0.155823,0.911438,-0.351410,-1.936493,-0.538330,365860.805861,135084029.304029,69703736.263736,66.529205,1,2,1,1,2,55.000000
2025-11-11 16:41:40.191,0.7925773318284304,0.7330176200535626,0.7980614824771167,0.3175303283177544,0.6533239003800795,0.7078380559749129,-0.03320391380261183,0.4659742203302333,0.7919366162570132,0.2291532937728431,0.4571114394825897,0.5540298140371421,0.2941457341357577,0.2951136944434124,-0.04418791195509941,0.3150914799671422,-0.1950985130288474,-0.03101250699786327,-0.5404849640060929,0.2074833582857314,822.3809523809524,774.4322344322345,805.4578754578755,803.4432234432235,1195.897435897436,-0.370178,0.157288,0.919250,-0.441132,-2.018738,-0.403748,366666.666667,134988937.728938,69697289.377289,66.643944,1,1,1,1,1,55.000000
2025-11-11 16:41:41.036,,,,,,,,,,,,,,,,,,,,,,,,,,,,,,,,,,,,,,,,,,/muse/elements/blink
2025-11-11 16:41:41.196,0.7310832795162587,0.7330176200535626,0.7514811161823117,0.123375731377919,0.6468766066366257,0.7078380559749129,0.4711952956014894,0.3591658484536295,0.833952011825744,0.2291532937728431,0.4158813622035822,0.5640362379728633,0.4128165138151966,0.2951136944434124,-0.0554342694432316,0.453383365018253,-0.02246547288563253,-0.03101250699786327,-0.5711063099784867,0.1259927734454411,838.0952380952381,705.5311355311355,807.8754578754579,816.7399267399268,845.7509157509157,-0.369751,0.157593,0.917053,-0.740204,-1.929016,-0.179443,367472.527473,134613406.593407,69561904.761905,67.046776,1,1,1,1,1,55.000000
2025-11-11 16:41:42.192,0.8012596489440561,0.7330176200535626,1.163886467238324,-0.09276829152491749,0.4252704670856679,0.7078380559749129,0.8718349048939491,0.1152771591496917,0.6514988243247994,0.2291532937728431,0.2001700789900816,0.3096790577481139,0.4470179023507616,0.2951136944434124,0.1571239213587725,0.5886128090133972,0.04370213771150561,-0.03101250699786327,-0.4273300602327491,0.04826051240603259,772.014652014652,813.919413919414,809.4871794871796,771.6117216117216,574.1758241758242,-0.369873,0.152405,0.921448,-0.687866,-1.562653,-0.560760,365860.805861,134300732.600733,69540952.380952,67.316231,1,1,1,1,1,55.000000
2025-11-11 16:41:43.192,1.218802123785058,0.7330176200535626,0.9046683499892648,0.9665498882127695,0.9308670186012469,0.7078380559749129,-0.183594376043295,0.81374013631144,1.064774021155612,0.2291532937728431,0.1286280031158736,0.9496924710650256,0.5131796535107173,0.2951136944434124,0.03967564438525834,0.5876894146555476,0.3178670118421542,-0.03101250699786327,-0.4199213073552269,0.2519266264756056,797.3992673992674,830.0366300366301,783.2967032967033,794.981684981685,879.5970695970697,-0.372803,0.155090,0.918762,-0.299072,-1.809387,0.306549,365054.945055,134249963.369963,69622344.322344,67.074585,1,1,1,1,1,55.000000
2025-11-11 16:41:43.299,,,,,,,,,,,,,,,,,,,,,,,,,,,,,,,,,,,,,,,,,,/muse/elements/blink
2025-11-11 16:41:44.191,0.9681829067631764,0.7330176200535626,0.8986238666102262,0.786033816319702,0.7182951126452429,0.7078380559749129,0.5067482906757855,0.6892072161983919,0.5529816704046921,0.2291532937728431,0.3105714403351255,0.8159463228221859,0.4487636864158356,0.2951136944434124,0.009223964693140047,0.4553712532737912,0.2475403662575089,-0.03101250699786327,-0.3057362053980692,0.2725749820751464,809.0842490842491,805.0549450549451,788.9377289377289,797.8021978021978,829.6336996336996,-0.360962,0.158142,0.919800,-0.523376,-2.586975,-0.112152,365860.805861,134119413.919414,69663443.223443,67.081108,1,1,1,1,1,55.000000
2025-11-11 16:41:44.713,,,,,,,,,,,,,,,,,,,,,,,,,,,,,,,,,,,,,,,,,,/muse/elements/blink
2025-11-11 16:41:45.192,0.9681829067631764,0.7330176200535626,0.9031680628688434,0.786033816319702,0.7182951126452429,0.7078380559749129,0.6388294664922078,0.6892072161983919,0.5529816704046921,0.2291532937728431,0.4263496016958915,0.8159463228221859,0.4487636864158356,0.2951136944434124,0.06061607762868314,0.4553712532737912,0.2475403662575089,-0.03101250699786327,-0.4058554188166393,0.2725749820751464,815.1282051282052,809.4871794871796,813.5164835164835,808.2783882783883,620.1098901098901,-0.364868,0.151611,0.919678,-0.919647,-2.108459,0.194397,366666.666667,134175018.315018,69758534.798535,67.220413,1,1,1,1,1,55.000000
2025-11-11 16:41:46.193,0.5625606298744918,0.7330176200535626,0.9802731519862612,0.05615144454512771,0.1889160157659971,0.7078380559749129,0.6473683320695351,0.3177598995416372,0.6682362411665785,0.2291532937728431,0.506120339232324,0.8909975575511325,0.379406121913208,0.2951136944434124,0.05346270309573987,0.4856036843537407,-0.1402194070782543,-0.03101250699786327,-0.576700886250757,-0.02794747295997749,792.5641025641025,790.952380952381,796.996336996337,808.6813186813187,866.7032967032967,-0.362122,0.158813,0.921570,-0.650482,-2.153320,0.007477,365860.805861,134096849.816850,69740000.000000,67.287437,1,2,1,1,2,55.000000
2025-11-11 16:41:47.194,0.9894385858183095,0.7330176200535626,0.9777592608982772,0.3122784103639853,0.5172412294218666,0.7078380559749129,0.5293575063913691,0.5019494134590429,1.048679888150525,0.2291532937728431,0.4862476121266128,0.9644507505616539,0.4843312350357449,0.2951136944434124,0.0822751380352531,0.5484985092316207,0.01212280952262973,-0.03101250699786327,-0.5255988850214255,0.2876892002750764,791.7582417582418,779.2673992673992,809.0842490842491,803.4432234432235,906.1904761904763,-0.360474,0.147827,0.915955,-0.471039,-2.833710,0.082245,367472.527473,134207252.747253,69759340.659341,67.816353,1,1,1,1,1,55.000000
2025-11-11 16:41:47.847,,,,,,,,,,,,,,,,,,,,,,,,,,,,,,,,,,,,,,,,,,/muse/elements/blink
2025-11-11 16:41:47.847,,,,,,,,,,,,,,,,,,,,,,,,,,,,,,,,,,,,,,,,,,/muse/elements/jaw_clench
2025-11-11 16:41:48.198,1.076155563000651,0.7330176200535626,0.8619695485649962,0.1614383448403533,0.9547841379081712,0.7078380559749129,0.3160968115575812,0.3738772095726901,1.205593686924464,0.2291532937728431,0.529891020974315,0.7152181404942987,0.4881411325598954,0.2951136944434124,0.1532796293816738,0.6559450441805786,0.1535982477188849,-0.03101250699786327,-0.2387256543381072,0.1631014438788738,815.934065934066,829.2307692307693,809.0842490842491,788.9377289377289,632.1978021978022,-0.339905,0.143860,0.925293,0.844879,13.286285,-3.394470,364249.084249,133984835.164835,69582857.142857,68.219490,1,1,1,1,1,55.000000
2025-11-11 16:41:49.191,1.125371412119462,0.7330176200535626,0.8619695485649962,0.1450939201395378,1.140594216339243,0.7078380559749129,0.3160968115575812,0.2959812568566513,1.19776345001609,0.2291532937728431,0.529891020974315,0.4488701539334719,0.5340096813333141,0.2951136944434124,0.1532796293816738,0.6922585445305748,0.3139152220953149,-0.03101250699786327,-0.2387256543381072,0.1092121876939635,795.7875457875458,814.7252747252747,807.8754578754579,807.0695970695971,1052.857142857143,-0.469727,0.168823,0.859619,-0.867310,-8.157196,0.919647,361831.501832,134027545.787546,69606227.106227,69.001694,1,1,1,1,1,55.000000
2025-11-11 16:41:49.575,,,,,,,,,,,,,,,,,,,,,,,,,,,,,,,,,,,,,,,,,,/muse/elements/blink
2025-11-11 16:41:50.192,1.125371412119462,0.7330176200535626,0.8619695485649962,0.1048142595921726,1.140594216339243,0.7078380559749129,0.3160968115575812,0.1960262923803471,1.19776345001609,0.2291532937728431,0.529891020974315,0.6579059466087164,0.5340096813333141,0.2951136944434124,0.1532796293816738,0.625350897054948,0.3139152220953149,-0.03101250699786327,-0.2387256543381072,0.446253844799076,795.7875457875458,827.6190476190476,785.7142857142858,768.7912087912088,657.985347985348,-0.439270,0.168030,0.885498,-0.859833,-3.708496,-0.261688,364249.084249,134124249.084249,69649743.589744,69.832413,1,1,1,1,1,55.000000
2025-11-11 16:41:51.192,1.125371412119462,0.7330176200535626,1.09578161234149,0.1048142595921726,1.140594216339243,0.7078380559749129,0.2450240487013801,0.1960262923803471,1.19776345001609,0.2291532937728431,0.1082596406936027,0.6579059466087164,0.5340096813333141,0.2951136944434124,-0.03993547521820533,0.625350897054948,0.3139152220953149,-0.03101250699786327,-0.3690990937967583,0.446253844799076,798.2051282051282,833.2600732600733,821.1721611721612,807.8754578754579,564.5054945054945,-0.417603,0.155151,0.899719,-0.770111,-2.684174,0.396271,364249.084249,134196776.556777,69686813.186813,70.564178,1,1,1,1,1,55.000000
2025-11-11 16:41:52.192,0.9352854833246161,0.7330176200535626,0.7744802164344929,0.6384357623179026,0.5936478683824225,0.7078380559749129,0.1579624297959791,0.701013891646496,1.223001088912297,0.2291532937728431,0.3387161426878394,1.190722750844571,0.5682491545625149,0.2951136944434124,0.06266750805328249,0.3775979293599135,0.06200090239947337,-0.03101250699786327,-0.2854896849319905,0.1703715551881042,807.0695970695971,807.8754578754579,814.3223443223443,802.2344322344322,910.2197802197802,-0.412231,0.157104,0.902344,-0.538330,-1.764526,-0.456085,365860.805861,134350695.970696,69692454.212454,72.142982,1,1,1,1,1,55.000000
2025-11-11 16:41:53.192,0.9133904790867672,1.298264516308169,0.7059456972975704,0.832435592988376,0.6344695189574403,0.2251527577385178,0.2616597760309179,0.8455052768970214,1.226869231719218,0.6587014297611716,0.3546941804832348,1.144486785861184,0.3735897770740334,0.3297945495760824,0.1735827417413643,0.2544226379379559,0.0766436937992119,-0.09248197174303791,-0.2683719698527256,0.04617630651767155,796.996336996337,801.025641025641,819.96336996337,799.4139194139194,749.8534798534798,-0.402344,0.156738,0.904602,-0.583191,-1.644897,-0.396271,362637.362637,134140366.300366,69572380.952381,72.818039,1,1,1,1,1,55.000000
2025-11-11 16:41:54.192,1.116996089374916,1.162910028892262,1.02359762550583,1.028243120287532,0.6498680779220859,0.4529580965589509,0.6280752867940134,0.7804398187366357,1.181195031850545,0.8411141506902451,0.8566435658547054,0.9371187000104225,0.3742361799386942,0.3476856851506329,0.1641833102610094,0.4848499300993886,0.0444932686458968,-0.1749391124458984,-0.3509833135043687,-0.1214929381219378,809.4871794871796,852.1978021978023,827.2161172161173,807.0695970695971,685.7875457875458,-0.434448,0.037476,0.879700,-1.158905,-0.343933,-11.073151,364249.084249,134093626.373626,69533699.633700,73.286186,1,1,1,1,1,55.000000
2025-11-11 16:41:55.191,1.150430420170321,1.164931568741179,0.9770964785767431,1.074365682696909,0.7185382691008497,0.8667548419038898,0.661983112545999,0.4568636665727465,1.071694536561086,0.779965793094527,0.8454885676667098,0.9254397099317131,0.5147211469202414,0.493135368561724,0.08668602160172312,0.6537561950914462,0.1355707763152091,-0.05474879596745449,-0.2462436836332117,0.01583259286376197,788.5347985347986,825.6043956043957,810.2930402930403,802.2344322344322,750.6593406593407,-0.446594,0.077759,0.879211,-10.527344,-8.972168,-5.144043,361025.641026,134416776.556777,69556263.736264,73.369095,1,1,1,1,1,55.000000
2025-11-11 16:41:56.192,0.8511203104118458,1.17372371672683,0.467538176338528,1.074365682696909,0.5982964485059479,0.9598259569034582,0.3036899426054439,0.4568636665727465,1.232033747009299,0.7644249930815105,0.2611978963231353,0.9254397099317131,0.3797656302088347,0.530411999222388,0.1163942175777049,0.6537561950914462,-0.3572676037542762,0.01485545792646228,-0.3854764693518613,0.01583259286376197,803.040293040293,827.2161172161173,820.7692307692308,799.0109890109891,738.1684981684982,-0.447510,0.156433,0.848572,0.044861,-1.009369,-7.633820,361831.501832,134497362.637363,69524029.304029,73.083511,1,1,1,1,1,55.000000
2025-11-11 16:41:57.192,0.7831013003090492,1.005924707652623,1.032821685845388,0.699388416758829,0.573092417865796,0.8271048439519196,0.2978783949256238,0.5814756771230124,1.266366494796332,1.075586457797604,0.3022946841388254,1.338724234440265,0.3977369488386365,0.6350559791721874,0.1396516921645601,0.3391920568681991,-0.05080740531389383,-0.1238773527142654,-0.4756954434767789,0.07208615654387995,811.5018315018315,805.4578754578755,808.6813186813187,789.3406593406594,653.5531135531136,-0.451172,0.166931,0.880615,12.516174,-3.843079,1.039276,362637.362637,134602124.542125,69460366.300366,74.876686,1,1,1,1,1,55.000000
2025-11-11 16:41:58.194,0.7847681517018816,0.8973839292215117,1.187071208742033,0.6961998068690153,0.8257377547296046,0.8238049279638641,0.167866934426875,0.6485285350378442,1.30611367059858,0.8359435340267328,0.1835156247588022,1.160999978810669,0.1779933950932038,0.6434253587263458,0.140546564554116,0.348772272428504,0.03229866048335318,-0.08914185607210215,-0.5230860395596905,0.03923170704412495,817.5457875457876,813.1135531135532,809.4871794871796,817.948717948718,920.6959706959707,-0.450439,0.138977,0.875366,-0.299072,-2.183228,-0.231781,364249.084249,134818095.238095,69490183.150183,79.079918,1,1,1,1,1,55.000000
2025-11-11 16:41:59.200,0.8714771141418173,0.923570558290661,0.2363719730817871,0.7299868873725688,0.6646453596696651,0.53144590278435,-0.1731241975197398,0.5922054507711928,1.290949466089472,0.6756568021955648,0.06975937281887455,1.080205749233899,0.1811411548354583,0.4004852379250021,-0.04333463674849278,0.3207967577911633,-0.002747607861782225,-0.09509040882887723,-0.4393845451498868,-0.09392318006402249,813.1135531135532,803.040293040293,803.040293040293,801.8315018315019,594.3223443223443,-0.434448,0.152527,0.884338,-0.814972,-2.033691,0.284119,365054.945055,135377362.637363,69577216.117216,83.458351,1,1,1,1,1,55.000000
2025-11-11 16:42:00.202,0.7323901911343891,0.9004204232448663,0.3453181027389334,0.6007438340457655,0.4806345731228844,0.4015705924674791,0.3043516154598482,0.3822582406839125,1.206245821594261,0.5518199515170253,0.1712540258327798,1.040680020036474,0.2813881133603737,0.235494822349963,-0.1023567197335637,0.264287054465512,0.07121446393249964,-0.230379926662649,-0.4368375781019127,0.02144309279016733,809.4871794871796,798.2051282051282,805.0549450549451,803.040293040293,777.6556776556777,-0.438904,0.151978,0.894043,-0.426178,-2.093506,-0.762634,365054.945055,135748864.468864,69648937.728938,82.658844,1,1,1,1,1,55.000000
2025-11-11 16:42:01.192,0.8733643949766923,0.7433360163710806,0.2367873749046681,0.7519806504607535,0.2984945636604107,0.2799115091935629,0.05101969693366643,0.3130762318541115,0.9879976513769622,0.3839264526996288,0.2552032712909688,0.6534338072054808,0.2046682982437107,0.2346576158170341,-0.1377464778766833,0.1404328421562924,0.09160002328897372,-0.2392060159081445,-0.2266528675379791,-0.06963881483185524,805.4578754578755,774.4322344322345,814.3223443223443,816.7399267399268,973.8827838827839,-0.431152,0.150940,0.887939,-0.269165,-1.338348,0.500946,364249.084249,135638461.538462,69578021.978022,78.473633,1,1,1,1,1,55.000000
2025-11-11 16:42:02.192,0.6839759318388594,0.599730343634687,0.3860041001437302,0.5913202838725259,0.1820506996435393,0.266957281772653,-0.1738069918539455,0.4746313788667673,1.024924333853337,-0.1739336554837799,0.1664942910297462,0.9194383147069572,0.2570418199751564,0.2123798606557258,-0.02415253665237942,0.3497373949172749,-0.001903253641923391,-0.1852942200628884,-0.1848851836579542,0.03888481755867734,792.1611721611722,789.3406593406594,815.5311355311355,789.7435897435897,618.0952380952381,-0.425598,0.153870,0.894043,-0.613098,-2.564545,-0.328979,365054.945055,135133186.813187,69295164.835165,73.751900,1,1,1,1,1,55.000000
2025-11-11 16:42:03.192,0.9012553998399025,0.6412246528601442,0.2050554374396781,0.7379993483592592,0.6103930291857492,0.256435292967569,0.08760895114198219,0.6854441079196268,0.9203029273195934,0.3301289214610432,0.2695733588552878,0.9184890513719502,0.3596979278099056,0.1966752166752531,0.06488764110166967,0.2754458308105906,-0.1036967855429873,-0.3050627341150696,-0.4296274040876569,0.09473102360876583,815.1282051282052,811.9047619047619,809.4871794871796,801.4285714285714,713.992673992674,-0.425293,0.154968,0.892944,-0.665436,-1.876678,-0.201874,363443.223443,134756849.816850,69129157.509158,70.288078,1,1,1,1,1,55.000000
2025-11-11 16:42:04.191,0.7683202405973952,0.5927925818331273,0.2987129098811119,0.6807679968554087,0.4641151606678192,0.2413346841397364,0.3989793406055566,0.553275539527702,1.05270759712926,0.3270312399208118,0.3071674409609738,1.045205835111136,0.3964424185053229,0.21655514009181,0.1541547150972898,0.3591540250062753,-0.08623753373476931,-0.2678793280053361,-0.4846593930914361,0.1461933785679451,820.3663003663004,785.7142857142858,806.6666666666667,832.0512820512821,1094.358974358974,-0.423218,0.150635,0.893127,-0.590668,-1.921539,-0.029907,363443.223443,134734285.714286,69046153.846154,69.254143,1,1,1,1,1,55.000000
2025-11-11 16:42:05.192,0.5173568863723791,0.4078755398934018,0.6497387868643827,0.5579475588453443,0.6002441279049484,0.3917778706299009,0.1815544139840325,0.5031643873966261,1.32064048510184,0.3076055105389718,0.1989933994626654,1.155251700261321,0.5014479952758393,0.3782623174939602,0.167513067829004,0.3700301628041961,0.03814044983446207,-0.1840219575491355,-0.305599855599288,0.157118766230272,813.1135531135532,807.0695970695971,807.8754578754579,801.025641025641,674.5054945054945,-0.419922,0.144836,0.895569,0.343933,-3.297272,0.441132,364249.084249,134770549.450549,69074358.974359,69.368690,1,1,1,1,1,55.000000
2025-11-11 16:42:06.191,0.7460134876116497,0.5503405067045199,0.2863943114245157,0.8702935623429556,0.6227175518148897,0.1252810400591705,-0.0442822313264676,0.3439125246048771,1.290400397342235,0.3606335111570651,0.4065309253168061,1.066334603976288,0.3639917276959744,0.2690330563390761,0.09667202666911248,0.4715142933842078,-0.1332890181819649,-0.1820127483841369,-0.2799133188377397,-0.07522521475244702,802.2344322344322,794.981684981685,815.934065934066,804.2490842490843,807.0695970695971,-0.410950,0.151855,0.893921,-0.456085,-1.375732,0.231781,365054.945055,134540073.260073,69028424.908425,70.120560,1,1,1,1,1,55.000000
2025-11-11 16:42:07.199,1.122224523129798,0.7437373628714715,0.3362023509239802,0.8445408378792426,0.5741138943286811,0.2355646337839737,-0.04328742265126136,0.4418138137051845,0.994534128635987,0.4756563512524539,0.3163844256073652,0.9928773456715446,0.3638397371328592,0.1531554148435526,-0.1191303214282357,0.3480326449977624,-0.1898256954141769,-0.115964118584276,-0.3662282923151736,-0.1552080730884189,823.992673992674,790.952380952381,815.1282051282052,812.7106227106227,775.2380952380953,-0.401917,0.151001,0.902283,-0.583191,-2.243042,-0.059814,364249.084249,134381318.681319,69038901.098901,71.585686,1,1,1,1,1,55.000000
2025-11-11 16:42:07.574,,,,,,,,,,,,,,,,,,,,,,,,,,,,,,,,,,,,,,,,,,/muse/elements/blink
2025-11-11 16:42:08.192,1.384650474390775,0.9252131114280917,0.7214527668991179,0.9796495421316603,0.6035949909465169,0.3887391221407768,0.1526722787604897,0.5690368194242984,0.7649758164193833,0.4400689573969291,0.3215193109631423,0.9561416295210168,0.3571320314641885,0.08430537615676278,-0.1624289095892062,0.2701667081344583,-0.06075373091822166,-0.1180808286700124,-0.3101716170560392,-0.2052450255859043,812.7106227106227,799.0109890109891,815.934065934066,812.7106227106227,717.6190476190476,-0.403809,0.156799,0.902161,-0.710297,-2.691650,-0.000000,364249.084249,134302344.322344,69108205.128205,73.156403,1,1,1,1,1,55.000000
2025-11-11 16:42:09.063,,,,,,,,,,,,,,,,,,,,,,,,,,,,,,,,,,,,,,,,,,/muse/elements/blink
2025-11-11 16:42:09.192,1.354254862877717,0.9942226756297138,0.627632064256904,0.9796495421316603,0.6625009186503723,0.3412402938546835,0.7348686304299634,0.5690368194242984,0.6643102056137138,0.3924279281418426,0.3811168070317131,0.9561416295210168,0.3616252622592743,0.1310885617798941,-0.03785757783118643,0.2701667081344583,-0.04446758852491724,-0.2252389151793249,-0.5901205453570014,-0.2052450255859043,761.5384615384615,800.6227106227107,797.3992673992674,777.2527472527473,691.4285714285714,-0.398010,0.148499,0.909546,-0.687866,-2.003784,0.029907,365054.945055,134479633.699634,69231501.831502,73.390915,1,1,1,1,1,55.000000
2025-11-11 16:42:10.192,1.503771677369204,0.6468148522476719,0.7501598839076246,0.9796495421316603,1.243301027237342,0.2140054958528798,0.8006785112202534,0.5690368194242984,1.088539608296058,0.5397998587686976,0.6448469263073361,0.9561416295210168,0.5685759427582954,0.1692218012608432,0.0004723498698885487,0.2701667081344583,-0.1173650552621805,-0.2312027693577257,-0.5408718428336168,-0.2052450255859043,806.2637362637363,772.4175824175825,789.3406593406594,807.0695970695971,985.9706959706961,-0.397217,0.154846,0.908142,-0.314026,-1.614990,-0.358887,365054.945055,134658534.798535,69349157.509158,71.655296,1,1,1,1,1,55.000000
2025-11-11 16:42:10.193,,,,,,,,,,,,,,,,,,,,,,,,,,,,,,,,,,,,,,,,,,/muse/elements/blink
2025-11-11 16:42:11.192,1.503771677369204,0.7600081329515211,0.6413219655028537,0.9796495421316603,1.243301027237342,0.1919113491916342,0.4085160496904692,0.5690368194242984,1.088539608296058,0.6065771027632807,0.6228656188609898,0.9561416295210168,0.5685759427582954,0.2306592611595719,-0.008724060691756583,0.2701667081344583,-0.1173650552621805,-0.1395657159759593,-0.4619705781208873,-0.2052450255859043,796.5934065934066,801.4285714285714,806.6666666666667,794.1758241758242,656.3736263736264,-0.396667,0.152283,0.903748,-0.702820,-2.444916,0.246735,365054.945055,134598901.098901,69391868.131868,70.460220,1,1,1,1,1,55.000000
2025-11-11 16:42:12.192,0.2768177650740586,0.5970487693406311,0.327880908019027,0.3453273085390821,0.2574467490163197,0.1662174178973792,0.1214704179167971,0.2398275530888867,0.5560501519989534,0.4171594087932065,0.125674054751388,0.4136607364995311,0.3425150775114268,0.2207136175157678,-0.08574599516836916,0.3389832487048372,-0.3355071346062106,-0.1838056988757039,-0.4199925081723871,-0.1257811064033423,805.0549450549451,798.6080586080586,812.7106227106227,807.0695970695971,572.967032967033,-0.389709,0.154541,0.905945,-0.456085,-1.824341,-0.037384,365860.805861,134378901.098901,69367692.307692,69.604973,1,1,1,1,1,55.000000
2025-11-11 16:42:13.055,,,,,,,,,,,,,,,,,,,,,,,,,,,,,,,,,,,,,,,,,,/muse/elements/blink
2025-11-11 16:42:13.195,0.3393541438743615,0.6947340782470782,0.2606249295449999,0.05237676167865318,0.2469402460398211,0.3716527123776554,-0.225918679260691,0.2371654588030777,0.5179304515647588,0.9805914109054227,0.05622964291947281,0.5699713212573609,0.2798492589649861,0.2010451228305095,0.06916249902550246,0.3907590929420575,-0.09888122228737775,-0.1622616954450057,-0.3056938189678051,-0.1252466289520097,813.1135531135532,807.4725274725275,813.1135531135532,807.8754578754579,729.3040293040293,-0.400085,0.158875,0.899231,-0.456085,-1.428070,0.209351,365860.805861,134291062.271062,69403150.183150,68.500191,1,1,1,1,1,55.000000
2025-11-11 16:42:14.199,0.1879713557253241,0.8919849471426576,0.7500552045528295,-0.2289482965364364,0.1775855854302357,0.6795241691374547,0.1090202905866158,0.3977739140180676,0.5096788734869061,0.96635517856147,0.6193802993823297,0.4242359019069093,0.2630500897667921,0.254604753732379,0.0006790061862858912,0.3157956307713988,-0.06838067449264923,-0.1212533588637507,-0.444547941882527,-0.315164949877848,792.967032967033,800.6227106227107,807.4725274725275,790.1465201465202,629.7802197802198,-0.389954,0.156738,0.905884,-0.485992,-2.871094,-0.007477,364249.084249,134204029.304029,69423296.703297,67.667397,1,1,1,1,1,55.000000
2025-11-11 16:42:15.191,0.4483323114564455,0.5534833385553909,0.8734870659376814,0.1225913277685127,0.4773789029462711,0.4989351307753828,0.2384579563763566,0.1375301687405525,0.7725040347509651,0.5861207843760943,0.6645251962856891,0.51230258980932,0.3775214888452878,0.2396189908463272,0.01298837238273585,0.3758070720292842,-0.03873268310569206,-0.3862241103622701,-0.6579681832954722,0.01618856544567113,794.5787545787546,805.0549450549451,810.6959706959707,798.6080586080586,663.6263736263736,-0.387939,0.159973,0.912354,-0.814972,-2.168274,-0.000000,365860.805861,134212893.772894,69451501.831502,67.238373,1,1,1,1,1,55.000000
2025-11-11 16:42:16.192,0.1861895244004187,0.5968575778075232,0.3881066678423774,0.01038337398443069,0.210258667496419,0.3480767291622652,0.02542768483751061,-0.07790032315570497,0.7291539848504267,0.6216839010221608,0.3078575326741062,0.3921414718594805,0.2556692332864683,0.2878353317723627,0.09841301850665768,0.3653682091627474,-0.2591354081474505,-0.3116220755343928,-0.5631383628675761,-0.08978060542866595,801.8315018315019,786.1172161172161,795.7875457875458,803.4432234432235,1053.260073260073,-0.388611,0.162781,0.909912,-0.710297,-2.168274,-0.044861,365860.805861,134139560.439560,69470842.490842,67.031975,1,1,1,1,1,55.000000
2025-11-11 16:42:16.490,,,,,,,,,,,,,,,,,,,,,,,,,,,,,,,,,,,,,,,,,,/muse/elements/blink
2025-11-11 16:42:17.202,0.4612644124239517,0.543838906638476,0.1502081110321529,0.1157317416205365,0.36500854470045,0.3141187815574773,0.01436505909967721,0.05593394784741522,0.4985478509327367,0.01395733652878199,0.3861246324956402,0.1300050763824939,0.2384355605725176,0.3303790754025687,0.1182071493857981,0.2888470689457862,-0.2524714696953535,-0.1508024834599728,-0.3863475805705963,-0.3876262136340321,801.4285714285714,810.2930402930403,811.9047619047619,815.934065934066,589.4871794871796,-0.385193,0.159485,0.904358,-0.620575,-1.966400,0.328979,365054.945055,134109743.589744,69472454.212454,67.363411,1,1,1,1,1,55.000000
2025-11-11 16:42:18.200,0.3479552971156559,1.030323303009016,0.8823009335749324,0.7167125801583465,0.6518146953727461,0.756913275895381,0.2236949496004105,0.500830160942525,1.127976524143786,0.5259303661209989,0.3705476083965996,0.863139605103748,0.2958884016892702,0.2766357415257446,0.02774115537517948,0.4061518727269208,-0.1198043460369972,-0.1413375348344258,-0.3274693639515316,-0.1779549143332738,807.4725274725275,803.4432234432235,812.3076923076924,805.8608058608058,790.1465201465202,-0.383423,0.162903,0.905945,-0.650482,-3.200073,-0.007477,364249.084249,134076703.296703,69504688.644689,67.654907,1,1,1,1,1,55.000000
2025-11-11 16:42:18.830,,,,,,,,,,,,,,,,,,,,,,,,,,,,,,,,,,,,,,,,,,/muse/elements/blink
2025-11-11 16:42:19.149,,,,,,,,,,,,,,,,,,,,,,,,,,,,,,,,,,,,,,,,,,/muse/elements/blink
2025-11-11 16:42:19.192,0.4992896350747421,0.7781089787012647,1.104873999487782,0.5793589717434697,0.6606635883539934,0.8363844869647554,0.6241570585691663,0.6334412361551934,1.254878723907626,0.675078049499603,0.6068912776688435,1.237497757674568,0.2310372101389953,0.2299584776354762,0.02971805350921206,0.4009775414419358,-0.05593501369464383,-0.2226912327184802,-0.4704898597207101,-0.1323959133366256,836.4835164835165,795.7875457875458,815.5311355311355,833.6630036630037,862.6739926739926,-0.385132,0.157166,0.908142,-0.643005,-1.682281,-0.620575,365054.945055,133834945.054945,69482124.542125,67.807396,1,1,1,1,1,55.000000
2025-11-11 16:42:20.192,0.5429893177421729,0.8087683396228381,0.8879004139011117,0.3165601977598132,0.527601280134387,0.9811755621393771,0.419209933464105,0.8047500096969019,1.171616368961658,0.6938574515810776,0.6245411300779035,1.237497757674568,0.1608286799351046,0.2015105926747065,0.08469777264927417,0.4362332084353135,-0.03275400881123851,-0.2749703888656011,-0.4188290182384721,-0.08237102515803332,797.3992673992674,811.9047619047619,803.040293040293,793.7728937728938,666.8498168498169,-0.384766,0.159546,0.914368,-0.306549,-2.071075,0.224304,366666.666667,133508571.428571,69472454.212454,68.678535,1,1,1,1,1,55.000000
2025-11-11 16:42:21.192,0.582298975674077,0.479166315370032,0.499810962167786,0.3557727761662,0.4725064403726614,0.3370418241833643,0.187394817029278,0.2951586313778805,0.5670732258242992,0.4549300325152891,0.496410671463304,0.4892624386064193,0.3539017719349022,0.2265776587886767,0.1126331593525607,0.3464508116522813,-0.1196229048703962,-0.1912180990707182,-0.2720934370147754,0.009119623346449097,809.4871794871796,800.6227106227107,808.2783882783883,793.7728937728938,745.4212454212454,-0.382385,0.160095,0.910034,-0.695343,-1.846771,-0.373840,365860.805861,133653626.373626,69509523.809524,69.973534,1,1,1,1,1,55.000000
2025-11-11 16:42:22.192,0.5128281419859377,0.6230419679768856,0.4558810872966438,0.2507945153524346,0.3608994300549793,-0.1404945450055115,0.3728002776949264,0.2633635951072129,0.8344413489009458,0.3255874644818614,0.4058383968302082,0.6939363571465006,0.3472516177756511,0.2427837677638838,0.0331449729896274,0.4211561820369942,-0.2273433573141352,-0.2300097202065412,-0.2104971450024506,0.09343098762952703,809.8901098901099,803.4432234432235,811.9047619047619,805.4578754578755,799.4139194139194,-0.373047,0.158997,0.917236,-0.672913,-2.594452,-0.074768,365860.805861,133747106.227106,69590109.890110,70.497032,1,1,1,1,1,55.000000
2025-11-11 16:42:23.192,0.1646376639839278,0.6633191632838116,0.8621381697918824,0.02174969641856835,0.2451251767219711,0.04306747922730365,0.2205050714291439,0.08619428535317693,0.775582471992778,0.2491727205850135,0.171874573379028,0.7390762094101538,0.3389193348180575,0.1651316157548542,-0.02165901015126179,0.3908024612373945,-0.1868061881949434,-0.2857293417377368,-0.1617071786611051,0.1298583292782072,815.934065934066,798.6080586080586,807.8754578754579,782.4908424908425,604.7985347985348,-0.358459,0.164124,0.920288,-0.643005,-2.564545,0.463562,366666.666667,133743882.783883,69611868.131868,70.478661,1,1,1,1,1,55.000000
2025-11-11 16:42:23.927,,,,,,,,,,,,,,,,,,,,,,,,,,,,,,,,,,,,,,,,,,/muse/elements/blink
2025-11-11 16:42:24.192,0.3483147134207027,0.5539080475819251,0.6458805487594195,0.352434158685225,0.237357161120534,0.2355633087327553,0.04911884878744757,0.09795310307853385,0.4244228804766087,0.2081219768554843,0.4669957546826388,0.5310422665133028,0.3034955358685523,0.2295595391721924,-0.07288563857544397,0.4486142537438422,-0.0007985636253447396,-0.1344613629769839,-0.2942179296581335,0.1623909250203789,824.7985347985348,839.7069597069598,803.8461538461539,815.1282051282052,646.3003663003664,-0.365112,0.164734,0.916443,0.665436,-1.540222,1.151428,365860.805861,133822857.142857,69561098.901099,70.227989,1,1,1,1,1,55.000000
2025-11-11 16:42:25.014,,,,,,,,,,,,,,,,,,,,,,,,,,,,,,,,,,,,,,,,,,/muse/elements/blink
2025-11-11 16:42:25.195,0.3552348777668439,0.5212694724305621,1.145027621208689,0.6093210399377039,-0.169437433109345,0.1395787319563606,0.316449014103719,0.08108404928792717,0.3774430756399526,0.1183890259623414,0.6378718568267087,0.4416249005769198,0.1289845301289619,0.2817951956286252,0.003919388639088935,0.4232037200846133,-0.002079906596085302,-0.1502030509927624,-0.3923411260272325,0.1829310750296097,805.8608058608058,824.7985347985348,816.7399267399268,801.025641025641,770.4029304029305,-0.366638,0.170715,0.912231,-0.373840,-0.927124,0.171967,365054.945055,133568205.128205,69450695.970696,69.505806,1,1,1,1,1,55.000000
2025-11-11 16:42:26.198,1.161272596035814,0.7653967083596188,0.496360174216292,0.6093210399377039,0.7462560042690944,0.3495829957789723,0.3272991783258142,0.08108404928792717,0.9695574819554337,0.4016495173330414,0.471224141445413,0.4416249005769198,0.3500947930282987,0.2452527700432739,0.1110327207664802,0.4232037200846133,-0.1124405289881648,-0.2453649253211281,-0.3614702413815448,0.1829310750296097,819.1575091575091,814.7252747252747,816.7399267399268,813.5164835164835,566.5201465201466,-0.361755,0.168640,0.921326,-0.545807,-3.177643,0.239258,363443.223443,133533553.113553,69445860.805861,70.064461,1,1,1,1,1,55.000000
2025-11-11 16:42:26.745,,,,,,,,,,,,,,,,,,,,,,,,,,,,,,,,,,,,,,,,,,/muse/elements/blink
2025-11-11 16:42:27.192,0.9625845378405297,0.8541479190527054,0.9612628551373656,0.8624119602935694,0.2632421571859614,0.5712663835323026,0.5178384642732474,0.440410932896324,0.2745649575136928,0.8954480499592571,0.4939701887941349,0.4595929955931223,0.2480970220870589,0.2369654600524682,0.1013819421407161,0.2545702707074314,-0.1076921623545918,-0.2401897327262131,-0.3114941165045382,-0.01753857380100128,818.3516483516484,811.5018315018315,805.0549450549451,811.0989010989011,786.5201465201466,-0.348694,0.168945,0.916504,-0.605621,-2.198181,0.142059,365860.805861,133693919.413919,69543369.963370,71.827293,1,1,1,1,1,55.000000
2025-11-11 16:42:28.192,1.071600593483743,0.9397415823606324,1.095151701192705,0.9232211529293909,0.3286093615855259,0.6234362331544013,0.6652329157936592,0.4964967793852182,0.2694755661542904,0.8961185707090203,0.5962640284883893,0.4471471930699111,0.2683411533523966,0.2448227869879174,0.1937806540880934,0.2347644231407741,-0.1213072739560826,-0.2471231069322357,-0.3972317825701397,0.002504420268868975,798.2051282051282,795.3846153846154,809.0842490842491,805.4578754578755,802.6373626373627,-0.346802,0.174438,0.923523,-0.403748,-2.198181,0.074768,365054.945055,133838168.498168,69612673.992674,72.923965,1,1,1,1,1,55.000000
2025-11-11 16:42:28.578,,,,,,,,,,,,,,,,,,,,,,,,,,,,,,,,,,,,,,,,,,/muse/elements/blink
2025-11-11 16:42:29.192,0.9705464935195349,0.6914976554979511,0.7430678195111974,0.06578363464127555,1.017667638820225,0.3440803458497877,0.5391873311127726,0.284917112005292,1.154471343746093,0.4535606318326065,0.6202043603423314,0.2354598057864454,0.346081157875517,0.2743472266216838,0.1741543641037907,0.2661688463004619,-0.2007268861382439,-0.3863653615295627,-0.5069679397258837,-0.1211858199545876,809.4871794871796,792.5641025641025,823.5897435897436,813.919413919414,756.3003663003664,-0.350098,0.173096,0.922119,-0.388794,-1.607513,-0.351410,364249.084249,133716483.516484,69535311.355311,73.588745,1,1,1,1,1,55.000000
2025-11-11 16:42:30.192,1.101825457439475,1.177380955742726,1.060251244478322,-0.0165720849605407,1.085070572877208,0.7238551233652391,0.6803152738424828,0.1475308547045766,1.154471343746093,0.6355777521444795,0.593674625501826,0.1600188955133115,0.3162577609243259,0.3442720796938216,0.1128105135801433,0.1981833956679625,-0.1411017449782974,-0.3824544539929213,-0.5459778970148251,-0.1921901994425225,797.8021978021978,800.6227106227107,807.8754578754579,797.3992673992674,688.6080586080586,-0.341553,0.173950,0.923584,-0.568237,-3.005676,0.201874,365054.945055,133695531.135531,69529670.329670,74.046890,1,1,1,1,1,55.000000
2025-11-11 16:42:31.194,0.3143572426556184,0.93761698916295,0.864788719216507,0.04965973985620478,0.04767224785099388,0.4688329180891485,0.2766339917294024,-0.02287226405597756,0.4512551527168734,0.6160660883127765,0.5601383898322669,0.5956734944704319,0.1551674368386646,0.2600907904705226,0.06227532673950766,0.4101960996673036,-0.1935616113010677,-0.3390866096521246,-0.3146448658670775,0.1759643752570809,817.948717948718,801.8315018315019,810.2930402930403,807.8754578754579,754.6886446886447,-0.334351,0.171448,0.929932,-0.889740,-2.758942,0.059814,364249.084249,133664908.424908,69496630.036630,74.120476,1,1,1,1,1,55.000000
2025-11-11 16:42:32.198,0.6938572132136176,0.4880653790451664,0.2001100298894985,-0.002945991994429277,0.6634890407768408,0.03346411460772473,0.2628237320209396,0.3038010100310851,1.141031906597538,0.6198184167000469,0.4851332316201677,1.057617212330787,0.3941055081603004,0.2909209164802513,-0.1444569787769742,0.3511543293035286,-0.2973125976745333,-0.2477758204376213,-0.3040286514809424,0.2403124342107877,841.7216117216118,775.2380952380953,801.8315018315019,848.5714285714286,1217.655677655678,-0.333252,0.169006,0.927979,-0.366364,-1.914062,-0.201874,365054.945055,133780146.520147,69524029.304029,74.689545,1,1,1,1,1,55.000000
2025-11-11 16:42:32.229,,,,,,,,,,,,,,,,,,,,,,,,,,,,,,,,,,,,,,,,,,/muse/elements/blink
2025-11-11 16:42:33.192,1.104213846550056,0.9755204536158187,0.6025686564092654,-0.0001203447201331297,1.055806500591396,0.7643033519610729,0.11658865963912,0.721575600523006,1.108267383710545,0.7344710875909028,0.4068708445135936,1.008668244574465,0.6076120233660025,0.3631858673647682,0.02641127525345034,0.4629272670002412,-0.4877168124197044,-0.08425024187188748,-0.3230093131520635,0.1568375168899813,806.6666666666667,803.040293040293,815.934065934066,815.934065934066,632.6007326007326,-0.343567,0.171265,0.920837,-0.635529,-2.340240,0.134583,364249.084249,133662490.842491,69382197.802198,74.023132,1,1,1,1,1,55.000000
